SpectraSuite Data File
++++++++++++++++++++++++++++++++++++
Date: Mon May 20 12:13:54 CDT 2013
User: Students
Dark Spectrum Present: Yes
Reference Spectrum Present: Yes
Number of Sampled Component Spectra: 1
Spectrometers: USB4H00887
Integration Time (usec): 60000 (USB4H00887)
Spectra Averaged: 5 (USB4H00887)
Boxcar Smoothing: 5 (USB4H00887)
Correct for Electrical Dark: No (USB4H00887)
Strobe/Lamp Enabled: No (USB4H00887)
Correct for Detector Non-linearity: No (USB4H00887)
Correct for Stray Light: No (USB4H00887)
Number of Pixels in Processed Spectrum: 3648
>>>>>Begin Processed Spectral Data<<<<<
345.83	0.972
346.05	0.972
346.26	0.972
346.48	0.135
346.70	0.422
346.92	-0.036
347.14	0.011
347.35	0.023
347.57	0.246
347.79	-0.216
348.01	-0.172
348.23	-0.290
348.44	-0.000
348.66	0.166
348.88	-0.342
349.10	-0.171
349.32	0.052
349.53	-0.002
349.75	-0.032
349.97	-0.012
350.19	0.011
350.41	-0.003
350.62	0.185
350.84	-0.029
351.06	-0.032
351.28	-0.077
351.50	-0.261
351.71	-0.176
351.93	-0.167
352.15	-0.032
352.37	-0.114
352.58	-0.025
352.80	-0.001
353.02	0.023
353.24	0.044
353.46	0.098
353.67	-0.132
353.89	0.033
354.11	0.037
354.33	0.041
354.54	0.059
354.76	0.107
354.98	0.149
355.20	0.128
355.41	0.066
355.63	0.100
355.85	0.076
356.07	0.660
356.28	0.095
356.50	0.164
356.72	0.081
356.94	0.244
357.15	0.375
357.37	-0.000
357.59	0.176
357.81	0.122
358.02	0.186
358.24	0.112
358.46	0.227
358.68	0.185
358.89	0.091
359.11	-0.000
359.33	0.086
359.55	-0.495
359.76	0.087
359.98	0.083
360.20	0.103
360.42	0.104
360.63	0.104
360.85	0.070
361.07	0.356
361.29	0.078
361.50	0.281
361.72	0.092
361.94	0.379
362.15	0.161
362.37	0.115
362.59	0.106
362.81	0.170
363.02	0.288
363.24	0.441
363.46	0.248
363.68	0.315
363.89	0.180
364.11	0.268
364.33	0.351
364.54	0.202
364.76	0.243
364.98	0.284
365.20	0.309
365.41	0.191
365.63	0.236
365.85	0.156
366.06	0.452
366.28	0.382
366.50	0.200
366.71	0.092
366.93	0.116
367.15	0.103
367.37	0.086
367.58	0.099
367.80	0.129
368.02	0.265
368.23	0.111
368.45	0.121
368.67	0.121
368.88	0.125
369.10	-0.000
369.32	0.103
369.53	0.052
369.75	0.083
369.97	0.198
370.19	0.122
370.40	0.058
370.62	0.124
370.84	0.056
371.05	0.272
371.27	0.089
371.49	0.141
371.70	0.159
371.92	0.357
372.14	0.134
372.35	0.147
372.57	0.155
372.79	0.464
373.00	0.096
373.22	0.148
373.44	0.130
373.65	0.098
373.87	0.101
374.09	0.359
374.30	0.071
374.52	0.089
374.74	0.068
374.95	0.296
375.17	0.079
375.39	-0.000
375.60	0.100
375.82	0.182
376.04	0.082
376.25	0.118
376.47	0.076
376.68	0.180
376.90	0.115
377.12	0.248
377.33	0.142
377.55	0.395
377.77	0.190
377.98	0.338
378.20	0.180
378.42	0.216
378.63	0.284
378.85	-0.000
379.07	0.183
379.28	0.878
379.50	0.397
379.71	0.180
379.93	0.132
380.15	0.176
380.36	0.255
380.58	0.175
380.80	0.514
381.01	0.140
381.23	0.113
381.44	0.127
381.66	0.152
381.88	0.197
382.09	-0.087
382.31	0.128
382.53	0.129
382.74	0.774
382.96	0.218
383.17	0.191
383.39	0.267
383.61	0.354
383.82	0.245
384.04	0.282
384.25	0.347
384.47	0.342
384.69	0.332
384.90	0.334
385.12	0.774
385.33	0.399
385.55	0.272
385.77	0.442
385.98	0.214
386.20	0.293
386.41	0.256
386.63	0.316
386.85	0.259
387.06	0.315
387.28	0.464
387.49	0.309
387.71	0.216
387.93	0.192
388.14	0.648
388.36	0.253
388.57	0.227
388.79	0.253
389.01	-0.000
389.22	0.310
389.44	0.273
389.65	0.224
389.87	0.215
390.08	0.250
390.30	0.190
390.52	0.360
390.73	0.344
390.95	0.234
391.16	0.223
391.38	-0.000
391.59	0.235
391.81	0.200
392.03	0.206
392.24	0.247
392.46	0.201
392.67	0.182
392.89	0.249
393.10	0.374
393.32	0.277
393.53	0.320
393.75	0.213
393.97	0.246
394.18	0.338
394.40	0.297
394.61	0.299
394.83	0.277
395.04	0.349
395.26	0.239
395.47	0.390
395.69	0.318
395.91	0.334
396.12	0.421
396.34	0.399
396.55	0.254
396.77	0.397
396.98	-0.000
397.20	0.482
397.41	0.538
397.63	0.349
397.84	0.307
398.06	0.284
398.27	0.304
398.49	0.343
398.71	0.251
398.92	0.306
399.14	0.379
399.35	0.476
399.57	0.461
399.78	0.308
400.00	0.296
400.21	0.363
400.43	0.291
400.64	0.296
400.86	0.652
401.07	0.365
401.29	0.317
401.50	0.343
401.72	0.492
401.93	0.302
402.15	0.363
402.36	0.327
402.58	0.281
402.79	0.317
403.01	0.540
403.22	0.413
403.44	0.275
403.65	0.423
403.87	0.453
404.08	0.360
404.30	0.611
404.51	0.333
404.73	0.412
404.94	0.349
405.16	0.360
405.37	0.279
405.59	0.512
405.80	0.316
406.02	0.398
406.23	0.411
406.45	0.469
406.66	0.480
406.88	0.303
407.09	0.472
407.31	0.371
407.52	0.445
407.74	0.379
407.95	0.457
408.17	0.419
408.38	0.430
408.60	0.285
408.81	0.458
409.03	0.350
409.24	0.345
409.45	0.393
409.67	0.371
409.88	0.339
410.10	0.423
410.31	0.349
410.53	0.349
410.74	0.498
410.96	0.474
411.17	0.513
411.39	0.394
411.60	0.369
411.82	0.436
412.03	0.424
412.24	0.405
412.46	0.590
412.67	0.488
412.89	0.474
413.10	0.474
413.32	0.435
413.53	0.505
413.75	0.523
413.96	0.390
414.17	0.518
414.39	0.535
414.60	0.431
414.82	0.562
415.03	0.426
415.25	0.463
415.46	0.324
415.68	0.445
415.89	0.795
416.10	0.647
416.32	0.369
416.53	0.433
416.75	0.405
416.96	0.488
417.18	0.429
417.39	0.419
417.60	0.423
417.82	0.607
418.03	0.534
418.25	0.451
418.46	0.473
418.67	0.437
418.89	0.468
419.10	0.491
419.32	0.660
419.53	0.590
419.75	0.494
419.96	0.439
420.17	0.541
420.39	0.505
420.60	0.524
420.82	0.638
421.03	0.505
421.24	0.428
421.46	0.474
421.67	0.520
421.89	0.458
422.10	0.500
422.31	0.486
422.53	0.699
422.74	0.522
422.96	0.419
423.17	0.469
423.38	0.584
423.60	0.488
423.81	0.603
424.03	0.513
424.24	0.565
424.45	0.558
424.67	0.557
424.88	0.502
425.09	0.542
425.31	0.496
425.52	0.543
425.74	0.617
425.95	0.669
426.16	0.522
426.38	0.609
426.59	0.558
426.80	0.647
427.02	0.682
427.23	0.519
427.45	0.683
427.66	0.666
427.87	0.504
428.09	0.531
428.30	0.592
428.51	0.579
428.73	0.638
428.94	0.557
429.15	0.546
429.37	0.529
429.58	0.556
429.79	0.511
430.01	0.614
430.22	0.598
430.44	0.607
430.65	0.547
430.86	0.585
431.08	0.576
431.29	0.524
431.50	0.622
431.72	0.825
431.93	0.663
432.14	0.498
432.36	0.544
432.57	0.561
432.78	0.596
433.00	0.548
433.21	0.545
433.42	0.675
433.64	0.589
433.85	0.667
434.06	0.537
434.28	0.572
434.49	0.599
434.70	0.612
434.92	0.620
435.13	0.657
435.34	0.665
435.56	0.628
435.77	0.621
435.98	0.810
436.20	0.662
436.41	0.576
436.62	0.558
436.83	0.630
437.05	0.713
437.26	0.624
437.47	0.559
437.69	0.610
437.90	0.556
438.11	0.542
438.33	0.593
438.54	0.615
438.75	0.770
438.97	0.764
439.18	0.580
439.39	0.609
439.60	0.659
439.82	0.611
440.03	0.565
440.24	0.810
440.46	0.621
440.67	0.600
440.88	0.640
441.10	0.601
441.31	0.594
441.52	0.640
441.73	0.713
441.95	0.633
442.16	0.583
442.37	0.916
442.58	0.588
442.80	0.576
443.01	0.743
443.22	0.684
443.44	0.584
443.65	0.701
443.86	0.697
444.07	0.750
444.29	0.645
444.50	0.831
444.71	0.619
444.92	0.575
445.14	0.721
445.35	0.762
445.56	0.607
445.78	0.707
445.99	0.689
446.20	0.597
446.41	0.662
446.63	0.662
446.84	0.628
447.05	0.630
447.26	0.753
447.48	0.656
447.69	0.621
447.90	0.698
448.11	0.625
448.33	0.662
448.54	0.680
448.75	0.719
448.96	0.736
449.18	0.781
449.39	0.694
449.60	0.674
449.81	0.808
450.03	0.695
450.24	0.756
450.45	0.718
450.66	0.700
450.87	0.731
451.09	0.682
451.30	0.659
451.51	0.726
451.72	0.740
451.94	0.753
452.15	0.822
452.36	0.688
452.57	0.709
452.78	0.702
453.00	0.727
453.21	0.690
453.42	0.660
453.63	0.753
453.85	0.721
454.06	0.720
454.27	0.850
454.48	0.756
454.69	0.686
454.91	0.749
455.12	0.660
455.33	0.749
455.54	0.764
455.75	0.737
455.97	0.762
456.18	0.754
456.39	0.762
456.60	0.789
456.81	0.730
457.03	0.739
457.24	0.744
457.45	0.829
457.66	0.764
457.87	0.716
458.09	0.738
458.30	0.657
458.51	0.775
458.72	0.796
458.93	0.800
459.15	0.704
459.36	0.771
459.57	0.791
459.78	0.838
459.99	0.755
460.20	0.725
460.42	0.808
460.63	0.761
460.84	0.745
461.05	0.762
461.26	0.822
461.47	0.741
461.69	0.789
461.90	0.822
462.11	0.780
462.32	0.835
462.53	0.773
462.74	0.871
462.96	0.752
463.17	0.736
463.38	0.775
463.59	0.885
463.80	0.743
464.01	0.765
464.23	0.848
464.44	0.809
464.65	0.812
464.86	0.834
465.07	0.829
465.28	0.795
465.49	0.820
465.71	0.775
465.92	0.808
466.13	0.845
466.34	0.783
466.55	0.835
466.76	0.796
466.97	0.821
467.19	0.810
467.40	0.846
467.61	0.853
467.82	0.784
468.03	0.768
468.24	0.833
468.45	0.862
468.66	0.847
468.88	0.855
469.09	0.860
469.30	0.906
469.51	0.835
469.72	0.881
469.93	0.853
470.14	0.827
470.35	0.918
470.57	0.873
470.78	0.818
470.99	0.952
471.20	0.886
471.41	0.843
471.62	0.891
471.83	0.864
472.04	0.893
472.25	0.928
472.47	0.848
472.68	0.853
472.89	0.861
473.10	0.899
473.31	0.852
473.52	0.913
473.73	0.938
473.94	0.862
474.15	0.882
474.36	0.880
474.57	0.908
474.79	0.883
475.00	0.883
475.21	0.865
475.42	0.951
475.63	0.856
475.84	0.882
476.05	0.886
476.26	0.856
476.47	0.885
476.68	0.931
476.89	0.865
477.10	0.910
477.32	0.898
477.53	0.950
477.74	0.876
477.95	0.914
478.16	0.870
478.37	0.913
478.58	0.920
478.79	0.936
479.00	0.938
479.21	0.898
479.42	0.935
479.63	0.938
479.84	0.905
480.05	0.906
480.26	0.935
480.47	0.954
480.69	0.957
480.90	0.923
481.11	0.925
481.32	0.980
481.53	0.922
481.74	0.976
481.95	0.942
482.16	0.957
482.37	0.962
482.58	0.929
482.79	0.943
483.00	0.968
483.21	0.914
483.42	0.885
483.63	0.962
483.84	0.985
484.05	0.973
484.26	0.948
484.47	0.949
484.68	0.913
484.89	0.918
485.10	0.966
485.31	0.945
485.52	0.951
485.73	0.951
485.94	0.991
486.15	0.940
486.37	0.961
486.58	0.926
486.79	0.936
487.00	0.982
487.21	0.973
487.42	0.970
487.63	0.976
487.84	0.994
488.05	0.988
488.26	0.944
488.47	0.951
488.68	0.976
488.89	0.953
489.10	0.945
489.31	0.957
489.52	0.988
489.73	0.955
489.94	0.987
490.15	0.947
490.36	0.986
490.57	0.942
490.78	0.927
490.99	0.961
491.20	1.036
491.41	0.994
491.62	0.943
491.83	0.972
492.04	0.969
492.25	0.977
492.45	0.978
492.66	1.002
492.87	0.992
493.08	0.980
493.29	0.965
493.50	0.957
493.71	0.964
493.92	0.960
494.13	0.973
494.34	0.995
494.55	1.000
494.76	1.029
494.97	1.022
495.18	0.990
495.39	1.007
495.60	0.962
495.81	0.963
496.02	0.982
496.23	0.974
496.44	1.005
496.65	0.995
496.86	1.001
497.07	1.027
497.28	1.020
497.49	0.971
497.70	0.970
497.91	0.992
498.12	0.974
498.32	1.019
498.53	1.003
498.74	0.995
498.95	1.019
499.16	0.976
499.37	0.978
499.58	0.986
499.79	1.015
500.00	1.013
500.21	1.036
500.42	0.985
500.63	0.983
500.84	1.003
501.05	0.981
501.26	1.005
501.46	1.040
501.67	1.007
501.88	1.009
502.09	0.987
502.30	0.994
502.51	1.041
502.72	0.997
502.93	1.014
503.14	1.034
503.35	1.006
503.56	1.002
503.77	1.031
503.97	1.008
504.18	1.008
504.39	1.039
504.60	1.008
504.81	1.035
505.02	1.020
505.23	1.021
505.44	1.004
505.65	1.011
505.86	0.993
506.07	1.057
506.27	1.017
506.48	1.021
506.69	1.007
506.90	1.027
507.11	1.025
507.32	1.005
507.53	1.013
507.74	1.007
507.95	1.019
508.15	1.025
508.36	1.030
508.57	1.040
508.78	1.024
508.99	1.022
509.20	0.999
509.41	1.021
509.62	1.011
509.82	1.008
510.03	1.017
510.24	1.018
510.45	1.040
510.66	1.032
510.87	1.031
511.08	0.993
511.29	1.034
511.49	1.011
511.70	1.054
511.91	0.991
512.12	0.989
512.33	1.020
512.54	1.033
512.75	1.017
512.95	1.041
513.16	1.031
513.37	1.008
513.58	1.044
513.79	1.011
514.00	1.019
514.20	1.037
514.41	1.025
514.62	0.992
514.83	1.035
515.04	1.023
515.25	1.005
515.46	1.015
515.66	1.018
515.87	1.030
516.08	0.999
516.29	1.021
516.50	1.001
516.71	0.996
516.91	1.004
517.12	1.017
517.33	1.005
517.54	0.990
517.75	0.993
517.95	1.004
518.16	1.013
518.37	0.982
518.58	0.989
518.79	0.966
519.00	0.997
519.20	1.007
519.41	0.980
519.62	1.000
519.83	1.010
520.04	0.977
520.24	0.974
520.45	0.984
520.66	1.008
520.87	0.971
521.08	0.968
521.28	0.970
521.49	0.986
521.70	0.959
521.91	0.972
522.12	0.954
522.32	0.976
522.53	0.958
522.74	0.948
522.95	0.956
523.16	0.957
523.36	0.965
523.57	0.947
523.78	0.940
523.99	0.945
524.20	0.938
524.40	0.951
524.61	0.958
524.82	0.936
525.03	0.940
525.23	0.941
525.44	0.926
525.65	0.926
525.86	0.946
526.06	0.920
526.27	0.921
526.48	0.929
526.69	0.910
526.90	0.913
527.10	0.945
527.31	0.901
527.52	0.895
527.73	0.889
527.93	0.896
528.14	0.902
528.35	0.891
528.56	0.892
528.76	0.886
528.97	0.877
529.18	0.869
529.39	0.869
529.59	0.872
529.80	0.901
530.01	0.876
530.22	0.876
530.42	0.848
530.63	0.864
530.84	0.843
531.05	0.855
531.25	0.858
531.46	0.850
531.67	0.831
531.88	0.848
532.08	0.842
532.29	0.837
532.50	0.830
532.70	0.823
532.91	0.815
533.12	0.818
533.33	0.841
533.53	0.812
533.74	0.812
533.95	0.818
534.15	0.807
534.36	0.807
534.57	0.790
534.78	0.792
534.98	0.803
535.19	0.774
535.40	0.775
535.60	0.793
535.81	0.774
536.02	0.778
536.23	0.769
536.43	0.772
536.64	0.760
536.85	0.768
537.05	0.777
537.26	0.754
537.47	0.758
537.67	0.747
537.88	0.742
538.09	0.749
538.30	0.739
538.50	0.729
538.71	0.740
538.92	0.727
539.12	0.724
539.33	0.719
539.54	0.719
539.74	0.724
539.95	0.715
540.16	0.712
540.36	0.704
540.57	0.702
540.78	0.695
540.98	0.693
541.19	0.692
541.40	0.679
541.60	0.689
541.81	0.683
542.02	0.683
542.22	0.674
542.43	0.670
542.64	0.665
542.84	0.666
543.05	0.658
543.26	0.659
543.46	0.661
543.67	0.659
543.88	0.655
544.08	0.645
544.29	0.640
544.50	0.640
544.70	0.640
544.91	0.632
545.12	0.634
545.32	0.630
545.53	0.633
545.74	0.623
545.94	0.620
546.15	0.617
546.35	0.614
546.56	0.611
546.77	0.608
546.97	0.606
547.18	0.598
547.39	0.598
547.59	0.596
547.80	0.592
548.01	0.595
548.21	0.591
548.42	0.583
548.62	0.583
548.83	0.580
549.04	0.577
549.24	0.570
549.45	0.570
549.65	0.566
549.86	0.561
550.07	0.561
550.27	0.559
550.48	0.567
550.69	0.553
550.89	0.553
551.10	0.549
551.30	0.548
551.51	0.547
551.72	0.537
551.92	0.537
552.13	0.538
552.33	0.538
552.54	0.533
552.75	0.526
552.95	0.528
553.16	0.523
553.36	0.521
553.57	0.518
553.78	0.516
553.98	0.517
554.19	0.509
554.39	0.506
554.60	0.508
554.80	0.508
555.01	0.501
555.22	0.502
555.42	0.499
555.63	0.492
555.83	0.496
556.04	0.490
556.25	0.492
556.45	0.482
556.66	0.480
556.86	0.483
557.07	0.481
557.27	0.480
557.48	0.474
557.68	0.473
557.89	0.474
558.10	0.470
558.30	0.467
558.51	0.465
558.71	0.462
558.92	0.458
559.12	0.461
559.33	0.464
559.54	0.458
559.74	0.454
559.95	0.452
560.15	0.451
560.36	0.450
560.56	0.444
560.77	0.444
560.97	0.445
561.18	0.440
561.38	0.439
561.59	0.442
561.79	0.438
562.00	0.435
562.21	0.432
562.41	0.431
562.62	0.430
562.82	0.429
563.03	0.425
563.23	0.424
563.44	0.424
563.64	0.420
563.85	0.421
564.05	0.415
564.26	0.415
564.46	0.414
564.67	0.414
564.87	0.410
565.08	0.407
565.28	0.407
565.49	0.408
565.69	0.405
565.90	0.402
566.10	0.404
566.31	0.397
566.51	0.399
566.72	0.400
566.92	0.394
567.13	0.393
567.33	0.392
567.54	0.390
567.74	0.389
567.95	0.384
568.15	0.385
568.36	0.385
568.56	0.383
568.77	0.378
568.97	0.377
569.18	0.377
569.38	0.376
569.59	0.376
569.79	0.373
570.00	0.371
570.20	0.370
570.41	0.368
570.61	0.367
570.82	0.368
571.02	0.365
571.23	0.366
571.43	0.361
571.64	0.360
571.84	0.359
572.05	0.358
572.25	0.357
572.45	0.355
572.66	0.352
572.86	0.350
573.07	0.348
573.27	0.348
573.48	0.347
573.68	0.343
573.89	0.342
574.09	0.343
574.30	0.341
574.50	0.339
574.70	0.340
574.91	0.338
575.11	0.338
575.32	0.337
575.52	0.333
575.73	0.333
575.93	0.333
576.14	0.332
576.34	0.330
576.54	0.329
576.75	0.327
576.95	0.326
577.16	0.324
577.36	0.323
577.57	0.323
577.77	0.322
577.97	0.319
578.18	0.321
578.38	0.318
578.59	0.316
578.79	0.315
579.00	0.316
579.20	0.314
579.40	0.313
579.61	0.312
579.81	0.311
580.02	0.308
580.22	0.308
580.42	0.307
580.63	0.306
580.83	0.305
581.04	0.302
581.24	0.301
581.45	0.300
581.65	0.299
581.85	0.298
582.06	0.296
582.26	0.296
582.47	0.294
582.67	0.294
582.87	0.293
583.08	0.291
583.28	0.291
583.48	0.289
583.69	0.287
583.89	0.287
584.10	0.287
584.30	0.285
584.50	0.283
584.71	0.282
584.91	0.282
585.12	0.280
585.32	0.282
585.52	0.279
585.73	0.278
585.93	0.277
586.13	0.277
586.34	0.275
586.54	0.275
586.75	0.274
586.95	0.273
587.15	0.273
587.36	0.271
587.56	0.270
587.76	0.269
587.97	0.269
588.17	0.267
588.37	0.267
588.58	0.267
588.78	0.264
588.98	0.265
589.19	0.264
589.39	0.262
589.60	0.264
589.80	0.262
590.00	0.261
590.21	0.261
590.41	0.260
590.61	0.259
590.82	0.259
591.02	0.258
591.22	0.256
591.43	0.256
591.63	0.254
591.83	0.253
592.04	0.252
592.24	0.252
592.44	0.250
592.65	0.248
592.85	0.248
593.05	0.249
593.26	0.247
593.46	0.247
593.66	0.247
593.86	0.246
594.07	0.244
594.27	0.245
594.47	0.243
594.68	0.243
594.88	0.243
595.08	0.242
595.29	0.243
595.49	0.240
595.69	0.240
595.90	0.239
596.10	0.240
596.30	0.238
596.50	0.237
596.71	0.236
596.91	0.235
597.11	0.235
597.32	0.235
597.52	0.233
597.72	0.232
597.93	0.232
598.13	0.230
598.33	0.230
598.53	0.229
598.74	0.229
598.94	0.229
599.14	0.228
599.35	0.229
599.55	0.228
599.75	0.227
599.95	0.226
600.16	0.227
600.36	0.225
600.56	0.225
600.76	0.224
600.97	0.222
601.17	0.222
601.37	0.222
601.58	0.220
601.78	0.220
601.98	0.219
602.18	0.219
602.39	0.219
602.59	0.219
602.79	0.218
602.99	0.217
603.20	0.216
603.40	0.216
603.60	0.215
603.80	0.215
604.01	0.214
604.21	0.213
604.41	0.212
604.61	0.211
604.82	0.210
605.02	0.210
605.22	0.210
605.42	0.210
605.62	0.210
605.83	0.208
606.03	0.208
606.23	0.208
606.43	0.207
606.64	0.208
606.84	0.207
607.04	0.207
607.24	0.207
607.45	0.207
607.65	0.206
607.85	0.207
608.05	0.205
608.25	0.204
608.46	0.204
608.66	0.204
608.86	0.203
609.06	0.202
609.26	0.201
609.47	0.202
609.67	0.201
609.87	0.202
610.07	0.201
610.28	0.199
610.48	0.199
610.68	0.199
610.88	0.198
611.08	0.198
611.29	0.197
611.49	0.196
611.69	0.197
611.89	0.195
612.09	0.195
612.29	0.194
612.50	0.194
612.70	0.194
612.90	0.193
613.10	0.193
613.30	0.192
613.51	0.192
613.71	0.192
613.91	0.196
614.11	0.191
614.31	0.191
614.51	0.190
614.72	0.189
614.92	0.189
615.12	0.189
615.32	0.190
615.52	0.189
615.72	0.189
615.93	0.189
616.13	0.188
616.33	0.188
616.53	0.187
616.73	0.188
616.93	0.187
617.14	0.187
617.34	0.187
617.54	0.187
617.74	0.186
617.94	0.186
618.14	0.185
618.34	0.185
618.55	0.184
618.75	0.184
618.95	0.184
619.15	0.184
619.35	0.183
619.55	0.181
619.75	0.182
619.96	0.181
620.16	0.182
620.36	0.181
620.56	0.181
620.76	0.180
620.96	0.180
621.16	0.180
621.36	0.179
621.57	0.179
621.77	0.180
621.97	0.178
622.17	0.178
622.37	0.178
622.57	0.179
622.77	0.178
622.97	0.177
623.18	0.177
623.38	0.177
623.58	0.177
623.78	0.177
623.98	0.177
624.18	0.176
624.38	0.176
624.58	0.175
624.78	0.175
624.98	0.175
625.19	0.175
625.39	0.175
625.59	0.174
625.79	0.174
625.99	0.174
626.19	0.173
626.39	0.173
626.59	0.173
626.79	0.173
626.99	0.173
627.19	0.172
627.40	0.172
627.60	0.172
627.80	0.172
628.00	0.171
628.20	0.171
628.40	0.171
628.60	0.171
628.80	0.170
629.00	0.170
629.20	0.170
629.40	0.170
629.60	0.169
629.80	0.169
630.00	0.169
630.20	0.169
630.41	0.168
630.61	0.168
630.81	0.168
631.01	0.168
631.21	0.167
631.41	0.167
631.61	0.167
631.81	0.167
632.01	0.167
632.21	0.166
632.41	0.165
632.61	0.165
632.81	0.165
633.01	0.166
633.21	0.165
633.41	0.166
633.61	0.165
633.81	0.164
634.01	0.163
634.21	0.163
634.41	0.163
634.61	0.163
634.81	0.162
635.01	0.162
