SpectraSuite Data File
++++++++++++++++++++++++++++++++++++
Date: Mon May 20 12:12:18 CDT 2013
User: Students
Dark Spectrum Present: Yes
Reference Spectrum Present: Yes
Number of Sampled Component Spectra: 1
Spectrometers: USB4H00887
Integration Time (usec): 60000 (USB4H00887)
Spectra Averaged: 5 (USB4H00887)
Boxcar Smoothing: 5 (USB4H00887)
Correct for Electrical Dark: No (USB4H00887)
Strobe/Lamp Enabled: No (USB4H00887)
Correct for Detector Non-linearity: No (USB4H00887)
Correct for Stray Light: No (USB4H00887)
Number of Pixels in Processed Spectrum: 3648
>>>>>Begin Processed Spectral Data<<<<<
345.83	-0.166
346.05	-0.166
346.26	-0.166
346.48	-0.000
346.70	0.477
346.92	0.011
347.14	0.015
347.35	0.012
347.57	0.073
347.79	-0.112
348.01	-0.076
348.23	-0.194
348.44	-0.000
348.66	0.206
348.88	-0.375
349.10	-0.187
349.32	0.136
349.53	-0.035
349.75	-0.041
349.97	-0.007
350.19	0.026
350.41	-0.032
350.62	0.046
350.84	-0.005
351.06	0.011
351.28	0.018
351.50	0.007
351.71	0.091
351.93	0.070
352.15	0.024
352.37	0.191
352.58	0.070
352.80	0.086
353.02	0.144
353.24	0.193
353.46	-0.000
353.67	-0.267
353.89	0.105
354.11	0.112
354.33	0.133
354.54	0.197
354.76	0.334
354.98	0.603
355.20	0.451
355.41	0.157
355.63	0.349
355.85	0.170
356.07	-0.000
356.28	0.165
356.50	0.306
356.72	0.078
356.94	0.212
357.15	0.233
357.37	-0.000
357.59	0.074
357.81	0.029
358.02	0.077
358.24	0.058
358.46	0.114
358.68	0.068
358.89	0.033
359.11	-0.000
359.33	0.058
359.55	-0.457
359.76	0.126
359.98	0.170
360.20	0.201
360.42	0.145
360.63	0.184
360.85	0.144
361.07	1.421
361.29	0.120
361.50	0.425
361.72	0.140
361.94	0.749
362.15	0.200
362.37	0.095
362.59	0.087
362.81	0.146
363.02	0.232
363.24	0.406
363.46	0.246
363.68	0.305
363.89	0.182
364.11	0.240
364.33	0.279
364.54	0.167
364.76	0.215
364.98	0.232
365.20	0.271
365.41	0.154
365.63	0.164
365.85	0.102
366.06	0.251
366.28	0.255
366.50	0.139
366.71	0.065
366.93	0.099
367.15	0.091
367.37	0.062
367.58	0.082
367.80	0.116
368.02	0.332
368.23	0.134
368.45	0.155
368.67	0.146
368.88	0.162
369.10	-0.000
369.32	0.182
369.53	0.110
369.75	0.217
369.97	0.645
370.19	0.294
370.40	0.106
370.62	0.340
370.84	0.118
371.05	0.591
371.27	0.134
371.49	0.140
371.70	0.171
371.92	0.250
372.14	0.104
372.35	0.119
372.57	0.116
372.79	0.337
373.00	0.079
373.22	0.124
373.44	0.126
373.65	0.092
373.87	0.144
374.09	0.548
374.30	0.136
374.52	0.161
374.74	0.116
374.95	0.655
375.17	0.132
375.39	-0.000
375.60	0.153
375.82	0.261
376.04	0.111
376.25	0.126
376.47	0.075
376.68	0.159
376.90	0.088
377.12	0.167
377.33	0.095
377.55	0.235
377.77	0.109
377.98	0.180
378.20	0.132
378.42	0.164
378.63	0.188
378.85	-0.000
379.07	0.136
379.28	0.483
379.50	0.340
379.71	0.167
379.93	0.118
380.15	0.160
380.36	0.215
380.58	0.138
380.80	0.386
381.01	0.126
381.23	0.099
381.44	0.116
381.66	0.146
381.88	0.160
382.09	-0.081
382.31	0.130
382.53	0.139
382.74	0.995
382.96	0.208
383.17	0.172
383.39	0.242
383.61	0.338
383.82	0.238
384.04	0.273
384.25	0.338
384.47	0.315
384.69	0.313
384.90	0.294
385.12	0.657
385.33	0.356
385.55	0.278
385.77	0.469
385.98	0.216
386.20	0.273
386.41	0.226
386.63	0.265
386.85	0.208
387.06	0.244
387.28	0.357
387.49	0.221
387.71	0.180
387.93	0.152
388.14	0.405
388.36	0.189
388.57	0.191
388.79	0.214
389.01	2.065
389.22	0.288
389.44	0.244
389.65	0.195
389.87	0.187
390.08	0.216
390.30	0.171
390.52	0.329
390.73	0.338
390.95	0.232
391.16	0.231
391.38	-0.000
391.59	0.266
391.81	0.224
392.03	0.224
392.24	0.287
392.46	0.238
392.67	0.212
392.89	0.298
393.10	0.454
393.32	0.298
393.53	0.338
393.75	0.197
393.97	0.226
394.18	0.326
394.40	0.278
394.61	0.280
394.83	0.249
395.04	0.312
395.26	0.207
395.47	0.307
395.69	0.253
395.91	0.277
396.12	0.347
396.34	0.328
396.55	0.199
396.77	0.293
396.98	1.355
397.20	0.360
397.41	0.355
397.63	0.260
397.84	0.241
398.06	0.231
398.27	0.241
398.49	0.282
398.71	0.209
398.92	0.269
399.14	0.363
399.35	0.439
399.57	0.421
399.78	0.301
400.00	0.283
400.21	0.355
400.43	0.279
400.64	0.289
400.86	0.652
401.07	0.367
401.29	0.309
401.50	0.327
401.72	0.458
401.93	0.298
402.15	0.352
402.36	0.327
402.58	0.266
402.79	0.306
403.01	0.509
403.22	0.396
403.44	0.275
403.65	0.429
403.87	0.460
404.08	0.366
404.30	0.579
404.51	0.324
404.73	0.393
404.94	0.339
405.16	0.341
405.37	0.260
405.59	0.473
405.80	0.298
406.02	0.374
406.23	0.368
406.45	0.430
406.66	0.467
406.88	0.302
407.09	0.462
407.31	0.362
407.52	0.436
407.74	0.358
407.95	0.412
408.17	0.371
408.38	0.401
408.60	0.269
408.81	0.441
409.03	0.323
409.24	0.327
409.45	0.386
409.67	0.382
409.88	0.351
410.10	0.448
410.31	0.365
410.53	0.358
410.74	0.499
410.96	0.495
411.17	0.525
411.39	0.423
411.60	0.385
411.82	0.441
412.03	0.429
412.24	0.403
412.46	0.585
412.67	0.482
412.89	0.472
413.10	0.462
413.32	0.418
413.53	0.477
413.75	0.488
413.96	0.372
414.17	0.499
414.39	0.513
414.60	0.424
414.82	0.570
415.03	0.436
415.25	0.488
415.46	0.339
415.68	0.476
415.89	0.902
416.10	0.706
416.32	0.382
416.53	0.444
416.75	0.407
416.96	0.496
417.18	0.421
417.39	0.406
417.60	0.401
417.82	0.578
418.03	0.511
418.25	0.426
418.46	0.439
418.67	0.399
418.89	0.433
419.10	0.450
419.32	0.595
419.53	0.555
419.75	0.470
419.96	0.416
420.17	0.511
420.39	0.477
420.60	0.493
420.82	0.605
421.03	0.497
421.24	0.418
421.46	0.463
421.67	0.511
421.89	0.443
422.10	0.481
422.31	0.477
422.53	0.668
422.74	0.494
422.96	0.400
423.17	0.447
423.38	0.543
423.60	0.455
423.81	0.548
424.03	0.466
424.24	0.512
424.45	0.515
424.67	0.517
424.88	0.464
425.09	0.504
425.31	0.457
425.52	0.475
425.74	0.528
425.95	0.570
426.16	0.462
426.38	0.528
426.59	0.493
426.80	0.560
427.02	0.575
427.23	0.453
427.45	0.586
427.66	0.575
427.87	0.461
428.09	0.490
428.30	0.536
428.51	0.522
428.73	0.569
428.94	0.502
429.15	0.494
429.37	0.476
429.58	0.506
429.79	0.471
430.01	0.561
430.22	0.554
430.44	0.568
430.65	0.512
430.86	0.554
431.08	0.539
431.29	0.495
431.50	0.577
431.72	0.750
431.93	0.608
432.14	0.460
432.36	0.502
432.57	0.517
432.78	0.530
433.00	0.488
433.21	0.480
433.42	0.590
433.64	0.525
433.85	0.590
434.06	0.492
434.28	0.518
434.49	0.535
434.70	0.545
434.92	0.543
435.13	0.587
435.34	0.605
435.56	0.574
435.77	0.574
435.98	0.723
436.20	0.612
436.41	0.525
436.62	0.518
436.83	0.580
437.05	0.650
437.26	0.578
437.47	0.520
437.69	0.560
437.90	0.521
438.11	0.507
438.33	0.549
438.54	0.565
438.75	0.710
438.97	0.692
439.18	0.532
439.39	0.556
439.60	0.604
439.82	0.565
440.03	0.531
440.24	0.738
440.46	0.574
440.67	0.553
440.88	0.595
441.10	0.557
441.31	0.559
441.52	0.609
441.73	0.678
441.95	0.609
442.16	0.561
442.37	0.844
442.58	0.552
442.80	0.539
443.01	0.691
443.22	0.630
443.44	0.545
443.65	0.633
443.86	0.630
444.07	0.672
444.29	0.583
444.50	0.732
444.71	0.565
444.92	0.533
445.14	0.672
445.35	0.701
445.56	0.561
445.78	0.648
445.99	0.650
446.20	0.565
446.41	0.629
446.63	0.629
446.84	0.597
447.05	0.596
447.26	0.702
447.48	0.605
447.69	0.577
447.90	0.655
448.11	0.586
448.33	0.607
448.54	0.625
448.75	0.645
448.96	0.651
449.18	0.680
449.39	0.620
449.60	0.603
449.81	0.709
450.03	0.624
450.24	0.670
450.45	0.635
450.66	0.627
450.87	0.649
451.09	0.614
451.30	0.599
451.51	0.662
451.72	0.666
451.94	0.679
452.15	0.737
452.36	0.630
452.57	0.639
452.78	0.647
453.00	0.668
453.21	0.631
453.42	0.612
453.63	0.693
453.85	0.656
454.06	0.654
454.27	0.756
454.48	0.681
454.69	0.618
454.91	0.670
455.12	0.589
455.33	0.655
455.54	0.671
455.75	0.649
455.97	0.662
456.18	0.659
456.39	0.667
456.60	0.691
456.81	0.643
457.03	0.650
457.24	0.654
457.45	0.723
457.66	0.675
457.87	0.638
458.09	0.653
458.30	0.587
458.51	0.681
458.72	0.694
458.93	0.696
459.15	0.626
459.36	0.678
459.57	0.692
459.78	0.731
459.99	0.664
460.20	0.641
460.42	0.700
460.63	0.670
460.84	0.657
461.05	0.673
461.26	0.719
461.47	0.652
461.69	0.694
461.90	0.725
462.11	0.690
462.32	0.736
462.53	0.688
462.74	0.762
462.96	0.671
463.17	0.667
463.38	0.699
463.59	0.785
463.80	0.669
464.01	0.684
464.23	0.746
464.44	0.714
464.65	0.713
464.86	0.731
465.07	0.736
465.28	0.711
465.49	0.725
465.71	0.689
465.92	0.717
466.13	0.755
466.34	0.709
466.55	0.749
466.76	0.723
466.97	0.743
467.19	0.730
467.40	0.759
467.61	0.758
467.82	0.696
468.03	0.682
468.24	0.732
468.45	0.750
468.66	0.739
468.88	0.744
469.09	0.745
469.30	0.774
469.51	0.725
469.72	0.753
469.93	0.732
470.14	0.718
470.35	0.782
470.57	0.750
470.78	0.710
470.99	0.804
471.20	0.761
471.41	0.733
471.62	0.774
471.83	0.752
472.04	0.770
472.25	0.802
472.47	0.742
472.68	0.744
472.89	0.746
473.10	0.774
473.31	0.736
473.52	0.780
473.73	0.794
473.94	0.738
474.15	0.756
474.36	0.756
474.57	0.770
474.79	0.752
475.00	0.754
475.21	0.744
475.42	0.806
475.63	0.740
475.84	0.761
476.05	0.766
476.26	0.746
476.47	0.770
476.68	0.800
476.89	0.754
477.10	0.786
477.32	0.780
477.53	0.816
477.74	0.761
477.95	0.786
478.16	0.751
478.37	0.779
478.58	0.782
478.79	0.791
479.00	0.794
479.21	0.766
479.42	0.795
479.63	0.797
479.84	0.772
480.05	0.772
480.26	0.793
480.47	0.805
480.69	0.805
480.90	0.784
481.11	0.784
481.32	0.822
481.53	0.780
481.74	0.812
481.95	0.788
482.16	0.799
482.37	0.805
482.58	0.783
482.79	0.793
483.00	0.810
483.21	0.772
483.42	0.748
483.63	0.797
483.84	0.815
484.05	0.807
484.26	0.790
484.47	0.788
484.68	0.763
484.89	0.766
485.10	0.797
485.31	0.785
485.52	0.792
485.73	0.795
485.94	0.820
486.15	0.787
486.37	0.799
486.58	0.775
486.79	0.783
487.00	0.814
487.21	0.809
487.42	0.806
487.63	0.809
487.84	0.819
488.05	0.817
488.26	0.790
488.47	0.793
488.68	0.810
488.89	0.796
489.10	0.792
489.31	0.797
489.52	0.817
489.73	0.795
489.94	0.817
490.15	0.789
490.36	0.812
490.57	0.784
490.78	0.777
490.99	0.799
491.20	0.846
491.41	0.819
491.62	0.786
491.83	0.803
492.04	0.804
492.25	0.809
492.45	0.811
492.66	0.828
492.87	0.821
493.08	0.811
493.29	0.802
493.50	0.796
493.71	0.801
493.92	0.799
494.13	0.809
494.34	0.820
494.55	0.823
494.76	0.838
494.97	0.832
495.18	0.811
495.39	0.820
495.60	0.789
495.81	0.792
496.02	0.804
496.23	0.802
496.44	0.820
496.65	0.816
496.86	0.819
497.07	0.837
497.28	0.834
497.49	0.804
497.70	0.806
497.91	0.820
498.12	0.808
498.32	0.835
498.53	0.826
498.74	0.820
498.95	0.835
499.16	0.808
499.37	0.809
499.58	0.816
499.79	0.834
500.00	0.832
500.21	0.849
500.42	0.813
500.63	0.814
500.84	0.825
501.05	0.813
501.26	0.827
501.46	0.850
501.67	0.830
501.88	0.831
502.09	0.814
502.30	0.817
502.51	0.847
502.72	0.821
502.93	0.831
503.14	0.842
503.35	0.826
503.56	0.824
503.77	0.843
503.97	0.827
504.18	0.826
504.39	0.847
504.60	0.832
504.81	0.846
505.02	0.840
505.23	0.842
505.44	0.830
505.65	0.834
505.86	0.822
506.07	0.860
506.27	0.836
506.48	0.841
506.69	0.831
506.90	0.842
507.11	0.841
507.32	0.826
507.53	0.830
507.74	0.827
507.95	0.834
508.15	0.836
508.36	0.837
508.57	0.845
508.78	0.834
508.99	0.834
509.20	0.818
509.41	0.834
509.62	0.828
509.82	0.825
510.03	0.831
510.24	0.831
510.45	0.844
510.66	0.839
510.87	0.835
511.08	0.811
511.29	0.834
511.49	0.822
511.70	0.848
511.91	0.809
512.12	0.808
512.33	0.826
512.54	0.835
512.75	0.825
512.95	0.841
513.16	0.837
513.37	0.824
513.58	0.846
513.79	0.825
514.00	0.827
514.20	0.838
514.41	0.830
514.62	0.812
514.83	0.836
515.04	0.830
515.25	0.818
515.46	0.825
515.66	0.827
515.87	0.832
516.08	0.815
516.29	0.829
516.50	0.816
516.71	0.813
516.91	0.818
517.12	0.828
517.33	0.820
517.54	0.810
517.75	0.810
517.95	0.817
518.16	0.824
518.37	0.804
518.58	0.807
518.79	0.792
519.00	0.810
519.20	0.815
519.41	0.797
519.62	0.809
519.83	0.816
520.04	0.795
520.24	0.793
520.45	0.797
520.66	0.810
520.87	0.787
521.08	0.786
521.28	0.790
521.49	0.798
521.70	0.781
521.91	0.788
522.12	0.775
522.32	0.787
522.53	0.778
522.74	0.772
522.95	0.777
523.16	0.778
523.36	0.784
523.57	0.772
523.78	0.769
523.99	0.772
524.20	0.768
524.40	0.776
524.61	0.781
524.82	0.765
525.03	0.767
525.23	0.767
525.44	0.757
525.65	0.753
525.86	0.766
526.06	0.749
526.27	0.749
526.48	0.754
526.69	0.742
526.90	0.743
527.10	0.763
527.31	0.737
527.52	0.733
527.73	0.729
527.93	0.735
528.14	0.740
528.35	0.733
528.56	0.733
528.76	0.728
528.97	0.723
529.18	0.717
529.39	0.717
529.59	0.717
529.80	0.735
530.01	0.719
530.22	0.717
530.42	0.697
530.63	0.709
530.84	0.694
531.05	0.703
531.25	0.705
531.46	0.700
531.67	0.686
531.88	0.697
532.08	0.693
532.29	0.688
532.50	0.684
532.70	0.680
532.91	0.673
533.12	0.674
533.33	0.689
533.53	0.670
533.74	0.670
533.95	0.673
534.15	0.667
534.36	0.666
534.57	0.655
534.78	0.656
534.98	0.662
535.19	0.643
535.40	0.644
535.60	0.655
535.81	0.641
536.02	0.643
536.23	0.637
536.43	0.637
536.64	0.630
536.85	0.636
537.05	0.641
537.26	0.626
537.47	0.627
537.67	0.620
537.88	0.617
538.09	0.621
538.30	0.614
538.50	0.607
538.71	0.615
538.92	0.605
539.12	0.603
539.33	0.599
539.54	0.600
539.74	0.603
539.95	0.596
540.16	0.594
540.36	0.589
540.57	0.588
540.78	0.584
540.98	0.583
541.19	0.582
541.40	0.573
541.60	0.580
541.81	0.576
542.02	0.575
542.22	0.567
542.43	0.564
542.64	0.561
542.84	0.560
543.05	0.554
543.26	0.554
543.46	0.556
543.67	0.555
543.88	0.552
544.08	0.544
544.29	0.541
544.50	0.542
544.70	0.543
544.91	0.536
545.12	0.538
545.32	0.535
545.53	0.538
545.74	0.530
545.94	0.527
546.15	0.526
546.35	0.524
546.56	0.523
546.77	0.521
546.97	0.519
547.18	0.513
547.39	0.513
547.59	0.512
547.80	0.508
548.01	0.512
548.21	0.509
548.42	0.503
548.62	0.502
548.83	0.500
549.04	0.496
549.24	0.491
549.45	0.491
549.65	0.489
549.86	0.486
550.07	0.486
550.27	0.484
550.48	0.490
550.69	0.480
550.89	0.480
551.10	0.477
551.30	0.477
551.51	0.477
551.72	0.468
551.92	0.469
552.13	0.468
552.33	0.469
552.54	0.464
552.75	0.459
552.95	0.461
553.16	0.456
553.36	0.455
553.57	0.454
553.78	0.453
553.98	0.453
554.19	0.446
554.39	0.445
554.60	0.447
554.80	0.447
555.01	0.441
555.22	0.442
555.42	0.440
555.63	0.435
555.83	0.438
556.04	0.432
556.25	0.434
556.45	0.427
556.66	0.425
556.86	0.429
557.07	0.427
557.27	0.426
557.48	0.421
557.68	0.420
557.89	0.421
558.10	0.418
558.30	0.416
558.51	0.415
558.71	0.414
558.92	0.410
559.12	0.412
559.33	0.414
559.54	0.410
559.74	0.406
559.95	0.404
560.15	0.404
560.36	0.403
560.56	0.399
560.77	0.400
560.97	0.400
561.18	0.396
561.38	0.395
561.59	0.397
561.79	0.394
562.00	0.392
562.21	0.390
562.41	0.389
562.62	0.388
562.82	0.386
563.03	0.384
563.23	0.383
563.44	0.383
563.64	0.381
563.85	0.382
564.05	0.377
564.26	0.377
564.46	0.376
564.67	0.377
564.87	0.373
565.08	0.370
565.28	0.370
565.49	0.371
565.69	0.369
565.90	0.367
566.10	0.369
566.31	0.364
566.51	0.366
566.72	0.366
566.92	0.361
567.13	0.361
567.33	0.360
567.54	0.359
567.74	0.359
567.95	0.355
568.15	0.356
568.36	0.355
568.56	0.354
568.77	0.350
568.97	0.349
569.18	0.349
569.38	0.347
569.59	0.348
569.79	0.346
570.00	0.344
570.20	0.343
570.41	0.341
570.61	0.340
570.82	0.341
571.02	0.337
571.23	0.339
571.43	0.335
571.64	0.334
571.84	0.334
572.05	0.332
572.25	0.332
572.45	0.330
572.66	0.328
572.86	0.328
573.07	0.327
573.27	0.328
573.48	0.327
573.68	0.324
573.89	0.323
574.09	0.325
574.30	0.323
574.50	0.322
574.70	0.322
574.91	0.320
575.11	0.320
575.32	0.320
575.52	0.316
575.73	0.316
575.93	0.316
576.14	0.315
576.34	0.313
576.54	0.312
576.75	0.311
576.95	0.311
577.16	0.309
577.36	0.308
577.57	0.308
577.77	0.306
577.97	0.304
578.18	0.306
578.38	0.302
578.59	0.301
578.79	0.300
579.00	0.301
579.20	0.300
579.40	0.299
579.61	0.299
579.81	0.298
580.02	0.296
580.22	0.296
580.42	0.295
580.63	0.296
580.83	0.295
581.04	0.293
581.24	0.293
581.45	0.291
581.65	0.291
581.85	0.289
582.06	0.287
582.26	0.287
582.47	0.287
582.67	0.286
582.87	0.285
583.08	0.283
583.28	0.284
583.48	0.282
583.69	0.279
583.89	0.279
584.10	0.281
584.30	0.279
584.50	0.277
584.71	0.276
584.91	0.276
585.12	0.274
585.32	0.276
585.52	0.274
585.73	0.274
585.93	0.273
586.13	0.273
586.34	0.272
586.54	0.272
586.75	0.271
586.95	0.270
587.15	0.271
587.36	0.270
587.56	0.268
587.76	0.267
587.97	0.266
588.17	0.265
588.37	0.265
588.58	0.265
588.78	0.262
588.98	0.263
589.19	0.263
589.39	0.261
589.60	0.263
589.80	0.260
590.00	0.260
590.21	0.260
590.41	0.259
590.61	0.258
590.82	0.258
591.02	0.258
591.22	0.256
591.43	0.256
591.63	0.255
591.83	0.254
592.04	0.253
592.24	0.254
592.44	0.251
592.65	0.250
592.85	0.251
593.05	0.251
593.26	0.249
593.46	0.249
593.66	0.248
593.86	0.248
594.07	0.246
594.27	0.247
594.47	0.245
594.68	0.245
594.88	0.246
595.08	0.245
595.29	0.245
595.49	0.243
595.69	0.243
595.90	0.242
596.10	0.242
596.30	0.241
596.50	0.240
596.71	0.240
596.91	0.239
597.11	0.238
597.32	0.238
597.52	0.237
597.72	0.236
597.93	0.236
598.13	0.234
598.33	0.235
598.53	0.234
598.74	0.234
598.94	0.233
599.14	0.232
599.35	0.233
599.55	0.233
599.75	0.232
599.95	0.231
600.16	0.231
600.36	0.230
600.56	0.230
600.76	0.229
600.97	0.228
601.17	0.228
601.37	0.228
601.58	0.227
601.78	0.227
601.98	0.226
602.18	0.225
602.39	0.225
602.59	0.225
602.79	0.224
602.99	0.225
603.20	0.223
603.40	0.223
603.60	0.223
603.80	0.223
604.01	0.222
604.21	0.221
604.41	0.221
604.61	0.220
604.82	0.220
605.02	0.220
605.22	0.219
605.42	0.219
605.62	0.219
605.83	0.218
606.03	0.217
606.23	0.217
606.43	0.217
606.64	0.217
606.84	0.216
607.04	0.216
607.24	0.216
607.45	0.216
607.65	0.214
607.85	0.215
608.05	0.214
608.25	0.213
608.46	0.213
608.66	0.213
608.86	0.212
609.06	0.211
609.26	0.210
609.47	0.211
609.67	0.209
609.87	0.210
610.07	0.210
610.28	0.208
610.48	0.208
610.68	0.209
610.88	0.207
611.08	0.208
611.29	0.207
611.49	0.206
611.69	0.207
611.89	0.206
612.09	0.205
612.29	0.205
612.50	0.205
612.70	0.205
612.90	0.204
613.10	0.203
613.30	0.203
613.51	0.203
613.71	0.202
613.91	0.207
614.11	0.202
614.31	0.201
614.51	0.201
614.72	0.200
614.92	0.200
615.12	0.200
615.32	0.200
615.52	0.200
615.72	0.200
615.93	0.200
616.13	0.199
616.33	0.199
616.53	0.199
616.73	0.199
616.93	0.198
617.14	0.199
617.34	0.198
617.54	0.199
617.74	0.199
617.94	0.198
618.14	0.198
618.34	0.197
618.55	0.197
618.75	0.198
618.95	0.197
619.15	0.197
619.35	0.196
619.55	0.195
619.75	0.195
619.96	0.194
620.16	0.194
620.36	0.194
620.56	0.193
620.76	0.193
620.96	0.192
621.16	0.192
621.36	0.192
621.57	0.192
621.77	0.193
621.97	0.192
622.17	0.192
622.37	0.192
622.57	0.192
622.77	0.191
622.97	0.190
623.18	0.190
623.38	0.191
623.58	0.190
623.78	0.189
623.98	0.189
624.18	0.188
624.38	0.188
624.58	0.188
624.78	0.188
624.98	0.188
625.19	0.188
625.39	0.187
625.59	0.186
625.79	0.187
625.99	0.186
626.19	0.186
626.39	0.186
626.59	0.186
626.79	0.185
626.99	0.185
627.19	0.185
627.40	0.185
627.60	0.184
627.80	0.184
628.00	0.184
628.20	0.183
628.40	0.183
628.60	0.184
628.80	0.182
629.00	0.183
629.20	0.182
629.40	0.183
629.60	0.182
629.80	0.182
630.00	0.181
630.20	0.181
630.41	0.180
630.61	0.180
630.81	0.180
631.01	0.180
631.21	0.179
631.41	0.179
631.61	0.179
631.81	0.179
632.01	0.179
632.21	0.179
632.41	0.178
632.61	0.178
632.81	0.179
633.01	0.179
633.21	0.179
633.41	0.179
633.61	0.178
633.81	0.178
634.01	0.177
634.21	0.177
634.41	0.176
634.61	0.177
634.81	0.176
635.01	0.175
635.22	0.175
