SpectraSuite Data File
++++++++++++++++++++++++++++++++++++
Date: Mon May 20 12:12:03 CDT 2013
User: Students
Dark Spectrum Present: Yes
Reference Spectrum Present: Yes
Number of Sampled Component Spectra: 1
Spectrometers: USB4H00887
Integration Time (usec): 60000 (USB4H00887)
Spectra Averaged: 5 (USB4H00887)
Boxcar Smoothing: 5 (USB4H00887)
Correct for Electrical Dark: No (USB4H00887)
Strobe/Lamp Enabled: No (USB4H00887)
Correct for Detector Non-linearity: No (USB4H00887)
Correct for Stray Light: No (USB4H00887)
Number of Pixels in Processed Spectrum: 3648
>>>>>Begin Processed Spectral Data<<<<<
345.83	-0.116
346.05	-0.116
346.26	-0.116
346.48	-0.000
346.70	0.138
346.92	0.122
347.14	0.082
347.35	0.090
347.57	0.576
347.79	-0.315
348.01	-0.223
348.23	-0.379
348.44	-0.000
348.66	0.415
348.88	-0.430
349.10	-0.187
349.32	0.063
349.53	-0.030
349.75	-0.021
349.97	-0.026
350.19	0.033
350.41	0.008
350.62	-0.258
350.84	0.038
351.06	0.042
351.28	0.037
351.50	-0.014
351.71	0.046
351.93	0.031
352.15	-0.006
352.37	-0.016
352.58	-0.003
352.80	0.023
353.02	0.026
353.24	0.027
353.46	0.097
353.67	-0.083
353.89	0.021
354.11	0.012
354.33	0.038
354.54	0.100
354.76	0.180
354.98	0.267
355.20	0.198
355.41	0.091
355.63	0.175
355.85	0.074
356.07	0.762
356.28	0.077
356.50	0.137
356.72	0.049
356.94	0.116
357.15	0.144
357.37	-0.000
357.59	0.091
357.81	0.033
358.02	0.101
358.24	0.087
358.46	0.185
358.68	0.196
358.89	0.113
359.11	-0.000
359.33	0.112
359.55	-0.645
359.76	0.158
359.98	0.231
360.20	0.247
360.42	0.175
360.63	0.216
360.85	0.158
361.07	1.540
361.29	0.125
361.50	0.300
361.72	0.109
361.94	0.480
362.15	0.181
362.37	0.089
362.59	0.100
362.81	0.144
363.02	0.215
363.24	0.321
363.46	0.192
363.68	0.262
363.89	0.177
364.11	0.244
364.33	0.331
364.54	0.195
364.76	0.218
364.98	0.195
365.20	0.235
365.41	0.137
365.63	0.161
365.85	0.105
366.06	0.301
366.28	0.340
366.50	0.228
366.71	0.087
366.93	0.118
367.15	0.104
367.37	0.122
367.58	0.151
367.80	0.176
368.02	0.569
368.23	0.197
368.45	0.199
368.67	0.191
368.88	0.180
369.10	-0.000
369.32	0.188
369.53	0.108
369.75	0.158
369.97	0.472
370.19	0.274
370.40	0.102
370.62	0.264
370.84	0.096
371.05	0.555
371.27	0.163
371.49	0.210
371.70	0.219
371.92	0.425
372.14	0.161
372.35	0.183
372.57	0.219
372.79	0.804
373.00	0.130
373.22	0.233
373.44	0.225
373.65	0.156
373.87	0.219
374.09	-0.000
374.30	0.185
374.52	0.190
374.74	0.117
374.95	0.519
375.17	0.132
375.39	-0.000
375.60	0.180
375.82	0.267
376.04	0.102
376.25	0.130
376.47	0.080
376.68	0.154
376.90	0.098
377.12	0.215
377.33	0.119
377.55	0.320
377.77	0.150
377.98	0.204
378.20	0.135
378.42	0.170
378.63	0.197
378.85	-0.000
379.07	0.146
379.28	0.621
379.50	0.352
379.71	0.174
379.93	0.121
380.15	0.167
380.36	0.273
380.58	0.202
380.80	0.691
381.01	0.167
381.23	0.147
381.44	0.151
381.66	0.166
381.88	0.204
382.09	-0.092
382.31	0.141
382.53	0.147
382.74	0.859
382.96	0.194
383.17	0.154
383.39	0.242
383.61	0.316
383.82	0.212
384.04	0.252
384.25	0.328
384.47	0.308
384.69	0.284
384.90	0.246
385.12	0.482
385.33	0.293
385.55	0.218
385.77	0.298
385.98	0.146
386.20	0.205
386.41	0.179
386.63	0.181
386.85	0.146
387.06	0.175
387.28	0.255
387.49	0.188
387.71	0.147
387.93	0.140
388.14	0.412
388.36	0.187
388.57	0.181
388.79	0.208
389.01	1.542
389.22	0.277
389.44	0.248
389.65	0.211
389.87	0.209
390.08	0.252
390.30	0.188
390.52	0.376
390.73	0.403
390.95	0.272
391.16	0.269
391.38	-0.000
391.59	0.321
391.81	0.262
392.03	0.250
392.24	0.308
392.46	0.246
392.67	0.220
392.89	0.308
393.10	0.509
393.32	0.312
393.53	0.366
393.75	0.230
393.97	0.260
394.18	0.363
394.40	0.325
394.61	0.326
394.83	0.277
395.04	0.321
395.26	0.206
395.47	0.285
395.69	0.242
395.91	0.255
396.12	0.300
396.34	0.312
396.55	0.205
396.77	0.291
396.98	1.122
397.20	0.352
397.41	0.424
397.63	0.301
397.84	0.266
398.06	0.257
398.27	0.252
398.49	0.304
398.71	0.229
398.92	0.277
399.14	0.372
399.35	0.460
399.57	0.470
399.78	0.313
400.00	0.300
400.21	0.402
400.43	0.330
400.64	0.351
400.86	0.912
401.07	0.436
401.29	0.376
401.50	0.393
401.72	0.594
401.93	0.341
402.15	0.395
402.36	0.370
402.58	0.295
402.79	0.318
403.01	0.552
403.22	0.403
403.44	0.261
403.65	0.392
403.87	0.425
404.08	0.337
404.30	0.562
404.51	0.317
404.73	0.376
404.94	0.325
405.16	0.331
405.37	0.254
405.59	0.462
405.80	0.296
406.02	0.376
406.23	0.391
406.45	0.447
406.66	0.453
406.88	0.297
407.09	0.464
407.31	0.371
407.52	0.457
407.74	0.367
407.95	0.432
408.17	0.399
408.38	0.417
408.60	0.277
408.81	0.464
409.03	0.357
409.24	0.363
409.45	0.406
409.67	0.382
409.88	0.342
410.10	0.438
410.31	0.365
410.53	0.356
410.74	0.523
410.96	0.495
411.17	0.503
411.39	0.384
411.60	0.352
411.82	0.415
412.03	0.415
412.24	0.398
412.46	0.588
412.67	0.477
412.89	0.475
413.10	0.464
413.32	0.420
413.53	0.476
413.75	0.496
413.96	0.378
414.17	0.504
414.39	0.503
414.60	0.417
414.82	0.544
415.03	0.429
415.25	0.472
415.46	0.326
415.68	0.465
415.89	0.902
416.10	0.701
416.32	0.380
416.53	0.458
416.75	0.432
416.96	0.525
417.18	0.446
417.39	0.427
417.60	0.423
417.82	0.605
418.03	0.529
418.25	0.441
418.46	0.465
418.67	0.426
418.89	0.453
419.10	0.471
419.32	0.627
419.53	0.573
419.75	0.483
419.96	0.421
420.17	0.517
420.39	0.481
420.60	0.507
420.82	0.623
421.03	0.506
421.24	0.423
421.46	0.478
421.67	0.511
421.89	0.448
422.10	0.485
422.31	0.485
422.53	0.716
422.74	0.526
422.96	0.415
423.17	0.459
423.38	0.560
423.60	0.471
423.81	0.584
424.03	0.505
424.24	0.555
424.45	0.561
424.67	0.553
424.88	0.494
425.09	0.533
425.31	0.488
425.52	0.515
425.74	0.588
425.95	0.644
426.16	0.497
426.38	0.590
426.59	0.540
426.80	0.608
427.02	0.628
427.23	0.485
427.45	0.628
427.66	0.616
427.87	0.481
428.09	0.512
428.30	0.572
428.51	0.556
428.73	0.599
428.94	0.527
429.15	0.519
429.37	0.509
429.58	0.526
429.79	0.490
430.01	0.590
430.22	0.581
430.44	0.594
430.65	0.532
430.86	0.571
431.08	0.556
431.29	0.513
431.50	0.594
431.72	0.804
431.93	0.667
432.14	0.500
432.36	0.541
432.57	0.565
432.78	0.574
433.00	0.530
433.21	0.530
433.42	0.667
433.64	0.586
433.85	0.671
434.06	0.538
434.28	0.559
434.49	0.574
434.70	0.590
434.92	0.594
435.13	0.638
435.34	0.652
435.56	0.607
435.77	0.601
435.98	0.767
436.20	0.646
436.41	0.548
436.62	0.550
436.83	0.627
437.05	0.703
437.26	0.613
437.47	0.551
437.69	0.596
437.90	0.543
438.11	0.536
438.33	0.585
438.54	0.607
438.75	0.779
438.97	0.747
439.18	0.565
439.39	0.598
439.60	0.653
439.82	0.605
440.03	0.557
440.24	0.812
440.46	0.612
440.67	0.592
440.88	0.634
441.10	0.592
441.31	0.594
441.52	0.644
441.73	0.726
441.95	0.644
442.16	0.606
442.37	0.956
442.58	0.602
442.80	0.584
443.01	0.753
443.22	0.680
443.44	0.577
443.65	0.682
443.86	0.681
444.07	0.719
444.29	0.620
444.50	0.774
444.71	0.601
444.92	0.556
445.14	0.703
445.35	0.742
445.56	0.594
445.78	0.697
445.99	0.703
446.20	0.606
446.41	0.687
446.63	0.695
446.84	0.659
447.05	0.657
447.26	0.786
447.48	0.673
447.69	0.637
447.90	0.718
448.11	0.637
448.33	0.661
448.54	0.679
448.75	0.702
448.96	0.708
449.18	0.746
449.39	0.666
449.60	0.654
449.81	0.776
450.03	0.676
450.24	0.732
450.45	0.702
450.66	0.681
450.87	0.710
451.09	0.667
451.30	0.644
451.51	0.711
451.72	0.724
451.94	0.740
452.15	0.806
452.36	0.674
452.57	0.689
452.78	0.681
453.00	0.714
453.21	0.676
453.42	0.652
453.63	0.749
453.85	0.712
454.06	0.705
454.27	0.825
454.48	0.743
454.69	0.678
454.91	0.747
455.12	0.657
455.33	0.734
455.54	0.749
455.75	0.720
455.97	0.737
456.18	0.728
456.39	0.734
456.60	0.757
456.81	0.703
457.03	0.712
457.24	0.711
457.45	0.787
457.66	0.732
457.87	0.692
458.09	0.709
458.30	0.637
458.51	0.757
458.72	0.779
458.93	0.797
459.15	0.699
459.36	0.762
459.57	0.788
459.78	0.835
459.99	0.756
460.20	0.721
460.42	0.807
460.63	0.761
460.84	0.737
461.05	0.755
461.26	0.809
461.47	0.729
461.69	0.775
461.90	0.811
462.11	0.766
462.32	0.819
462.53	0.762
462.74	0.852
462.96	0.743
463.17	0.737
463.38	0.778
463.59	0.884
463.80	0.743
464.01	0.765
464.23	0.846
464.44	0.807
464.65	0.814
464.86	0.834
465.07	0.836
465.28	0.794
465.49	0.817
465.71	0.774
465.92	0.808
466.13	0.849
466.34	0.793
466.55	0.843
466.76	0.809
466.97	0.829
467.19	0.814
467.40	0.848
467.61	0.853
467.82	0.773
468.03	0.757
468.24	0.820
468.45	0.854
468.66	0.837
468.88	0.844
469.09	0.842
469.30	0.889
469.51	0.826
469.72	0.867
469.93	0.842
470.14	0.824
470.35	0.911
470.57	0.869
470.78	0.808
470.99	0.932
471.20	0.875
471.41	0.837
471.62	0.886
471.83	0.857
472.04	0.889
472.25	0.928
472.47	0.842
472.68	0.847
472.89	0.847
473.10	0.886
473.31	0.839
473.52	0.892
473.73	0.912
473.94	0.838
474.15	0.860
474.36	0.859
474.57	0.884
474.79	0.865
475.00	0.864
475.21	0.853
475.42	0.938
475.63	0.848
475.84	0.880
476.05	0.889
476.26	0.859
476.47	0.892
476.68	0.934
476.89	0.866
477.10	0.912
477.32	0.903
477.53	0.950
477.74	0.878
477.95	0.916
478.16	0.866
478.37	0.902
478.58	0.908
478.79	0.923
479.00	0.924
479.21	0.884
479.42	0.920
479.63	0.922
479.84	0.886
480.05	0.887
480.26	0.912
480.47	0.932
480.69	0.933
480.90	0.904
481.11	0.899
481.32	0.956
481.53	0.897
481.74	0.946
481.95	0.916
482.16	0.933
482.37	0.936
482.58	0.904
482.79	0.919
483.00	0.947
483.21	0.894
483.42	0.870
483.63	0.937
483.84	0.967
484.05	0.956
484.26	0.929
484.47	0.930
484.68	0.896
484.89	0.906
485.10	0.951
485.31	0.928
485.52	0.935
485.73	0.935
485.94	0.973
486.15	0.923
486.37	0.940
486.58	0.908
486.79	0.918
487.00	0.963
487.21	0.953
487.42	0.950
487.63	0.955
487.84	0.972
488.05	0.969
488.26	0.930
488.47	0.934
488.68	0.960
488.89	0.939
489.10	0.931
489.31	0.942
489.52	0.973
489.73	0.944
489.94	0.980
490.15	0.938
490.36	0.978
490.57	0.934
490.78	0.920
490.99	0.955
491.20	1.025
491.41	0.986
491.62	0.931
491.83	0.958
492.04	0.950
492.25	0.957
492.45	0.959
492.66	0.980
492.87	0.973
493.08	0.961
493.29	0.948
493.50	0.940
493.71	0.947
493.92	0.946
494.13	0.960
494.34	0.981
494.55	0.987
494.76	1.015
494.97	1.007
495.18	0.973
495.39	0.989
495.60	0.944
495.81	0.944
496.02	0.963
496.23	0.956
496.44	0.985
496.65	0.978
496.86	0.981
497.07	1.003
497.28	1.000
497.49	0.955
497.70	0.957
497.91	0.975
498.12	0.960
498.32	1.000
498.53	0.986
498.74	0.977
498.95	0.999
499.16	0.960
499.37	0.965
499.58	0.971
499.79	0.997
500.00	0.992
500.21	1.020
500.42	0.968
500.63	0.969
500.84	0.987
501.05	0.969
501.26	0.993
501.46	1.028
501.67	0.993
501.88	0.996
502.09	0.975
502.30	0.983
502.51	1.028
502.72	0.987
502.93	1.000
503.14	1.020
503.35	0.992
503.56	0.990
503.77	1.018
503.97	0.998
504.18	0.998
504.39	1.030
504.60	1.000
504.81	1.027
505.02	1.017
505.23	1.019
505.44	0.999
505.65	1.007
505.86	0.988
506.07	1.048
506.27	1.008
506.48	1.012
506.69	0.997
506.90	1.015
507.11	1.011
507.32	0.987
507.53	0.996
507.74	0.993
507.95	1.004
508.15	1.011
508.36	1.015
508.57	1.026
508.78	1.011
508.99	1.009
509.20	0.985
509.41	1.008
509.62	0.996
509.82	0.993
510.03	0.999
510.24	0.998
510.45	1.016
510.66	1.008
510.87	1.004
511.08	0.968
511.29	1.010
511.49	0.989
511.70	1.033
511.91	0.975
512.12	0.973
512.33	1.004
512.54	1.019
512.75	1.004
512.95	1.031
513.16	1.023
513.37	1.002
513.58	1.034
513.79	1.002
514.00	1.006
514.20	1.022
514.41	1.011
514.62	0.980
514.83	1.018
515.04	1.009
515.25	0.988
515.46	0.999
515.66	1.000
515.87	1.013
516.08	0.982
516.29	1.005
516.50	0.990
516.71	0.986
516.91	0.997
517.12	1.013
517.33	1.000
517.54	0.988
517.75	0.989
517.95	1.003
518.16	1.013
518.37	0.983
518.58	0.989
518.79	0.963
519.00	0.990
519.20	0.995
519.41	0.970
519.62	0.988
519.83	0.995
520.04	0.964
520.24	0.959
520.45	0.969
520.66	0.988
520.87	0.953
521.08	0.951
521.28	0.956
521.49	0.972
521.70	0.943
521.91	0.954
522.12	0.937
522.32	0.957
522.53	0.941
522.74	0.929
522.95	0.939
523.16	0.940
523.36	0.949
523.57	0.933
523.78	0.928
523.99	0.932
524.20	0.926
524.40	0.938
524.61	0.945
524.82	0.921
525.03	0.926
525.23	0.928
525.44	0.914
525.65	0.912
525.86	0.930
526.06	0.905
526.27	0.907
526.48	0.915
526.69	0.897
526.90	0.900
527.10	0.933
527.31	0.891
527.52	0.884
527.73	0.877
527.93	0.887
528.14	0.892
528.35	0.883
528.56	0.884
528.76	0.878
528.97	0.870
529.18	0.864
529.39	0.862
529.59	0.865
529.80	0.895
530.01	0.870
530.22	0.868
530.42	0.839
530.63	0.855
530.84	0.833
531.05	0.846
531.25	0.849
531.46	0.839
531.67	0.819
531.88	0.837
532.08	0.830
532.29	0.826
532.50	0.820
532.70	0.814
532.91	0.806
533.12	0.809
533.33	0.831
533.53	0.804
533.74	0.804
533.95	0.811
534.15	0.799
534.36	0.800
534.57	0.784
534.78	0.785
534.98	0.793
535.19	0.767
535.40	0.767
535.60	0.783
535.81	0.764
536.02	0.766
536.23	0.757
536.43	0.759
536.64	0.747
536.85	0.754
537.05	0.762
537.26	0.741
537.47	0.744
537.67	0.734
537.88	0.729
538.09	0.737
538.30	0.727
538.50	0.719
538.71	0.730
538.92	0.717
539.12	0.712
539.33	0.709
539.54	0.708
539.74	0.711
539.95	0.702
540.16	0.700
540.36	0.692
540.57	0.692
540.78	0.685
540.98	0.684
541.19	0.681
541.40	0.669
541.60	0.677
541.81	0.672
542.02	0.672
542.22	0.663
542.43	0.658
542.64	0.653
542.84	0.652
543.05	0.644
543.26	0.644
543.46	0.647
543.67	0.645
543.88	0.642
544.08	0.632
544.29	0.627
544.50	0.627
544.70	0.628
544.91	0.620
545.12	0.621
545.32	0.617
545.53	0.621
545.74	0.610
545.94	0.607
546.15	0.603
546.35	0.600
546.56	0.598
546.77	0.594
546.97	0.591
547.18	0.584
547.39	0.584
547.59	0.582
547.80	0.578
548.01	0.581
548.21	0.578
548.42	0.571
548.62	0.571
548.83	0.568
549.04	0.565
549.24	0.559
549.45	0.558
549.65	0.554
549.86	0.550
550.07	0.550
550.27	0.548
550.48	0.555
550.69	0.543
550.89	0.542
551.10	0.539
551.30	0.537
551.51	0.537
551.72	0.526
551.92	0.527
552.13	0.527
552.33	0.527
552.54	0.522
552.75	0.516
552.95	0.517
553.16	0.511
553.36	0.509
553.57	0.507
553.78	0.505
553.98	0.506
554.19	0.497
554.39	0.495
554.60	0.497
554.80	0.497
555.01	0.490
555.22	0.491
555.42	0.489
555.63	0.483
555.83	0.486
556.04	0.480
556.25	0.482
556.45	0.473
556.66	0.471
556.86	0.473
557.07	0.470
557.27	0.469
557.48	0.463
557.68	0.462
557.89	0.463
558.10	0.459
558.30	0.457
558.51	0.455
558.71	0.453
558.92	0.448
559.12	0.451
559.33	0.454
559.54	0.449
559.74	0.445
559.95	0.443
560.15	0.443
560.36	0.441
560.56	0.435
560.77	0.435
560.97	0.435
561.18	0.430
561.38	0.429
561.59	0.431
561.79	0.426
562.00	0.424
562.21	0.421
562.41	0.419
562.62	0.418
562.82	0.416
563.03	0.412
563.23	0.412
563.44	0.412
563.64	0.409
563.85	0.411
564.05	0.405
564.26	0.404
564.46	0.404
564.67	0.404
564.87	0.400
565.08	0.398
565.28	0.398
565.49	0.398
565.69	0.395
565.90	0.392
566.10	0.394
566.31	0.388
566.51	0.390
566.72	0.389
566.92	0.384
567.13	0.384
567.33	0.382
567.54	0.380
567.74	0.380
567.95	0.375
568.15	0.376
568.36	0.376
568.56	0.374
568.77	0.369
568.97	0.368
569.18	0.367
569.38	0.365
569.59	0.367
569.79	0.364
570.00	0.362
570.20	0.361
570.41	0.359
570.61	0.357
570.82	0.358
571.02	0.354
571.23	0.356
571.43	0.352
571.64	0.351
571.84	0.350
572.05	0.348
572.25	0.348
572.45	0.346
572.66	0.343
572.86	0.343
573.07	0.341
573.27	0.341
573.48	0.340
573.68	0.336
573.89	0.335
574.09	0.336
574.30	0.335
574.50	0.333
574.70	0.333
574.91	0.331
575.11	0.331
575.32	0.331
575.52	0.327
575.73	0.327
575.93	0.327
576.14	0.326
576.34	0.324
576.54	0.323
576.75	0.322
576.95	0.321
577.16	0.319
577.36	0.317
577.57	0.317
577.77	0.315
577.97	0.312
578.18	0.314
578.38	0.310
578.59	0.309
578.79	0.307
579.00	0.308
579.20	0.306
579.40	0.306
579.61	0.305
579.81	0.303
580.02	0.301
580.22	0.301
580.42	0.299
580.63	0.299
580.83	0.298
581.04	0.296
581.24	0.295
581.45	0.294
581.65	0.294
581.85	0.293
582.06	0.291
582.26	0.291
582.47	0.290
582.67	0.290
582.87	0.289
583.08	0.287
583.28	0.287
583.48	0.286
583.69	0.283
583.89	0.283
584.10	0.284
584.30	0.282
584.50	0.280
584.71	0.279
584.91	0.278
585.12	0.277
585.32	0.278
585.52	0.275
585.73	0.274
585.93	0.274
586.13	0.273
586.34	0.272
586.54	0.271
586.75	0.270
586.95	0.269
587.15	0.269
587.36	0.268
587.56	0.267
587.76	0.265
587.97	0.264
588.17	0.263
588.37	0.263
588.58	0.263
588.78	0.261
588.98	0.261
589.19	0.260
589.39	0.258
589.60	0.260
589.80	0.258
590.00	0.257
590.21	0.257
590.41	0.256
590.61	0.256
590.82	0.255
591.02	0.254
591.22	0.252
591.43	0.253
591.63	0.251
591.83	0.250
592.04	0.248
592.24	0.249
592.44	0.246
592.65	0.244
592.85	0.245
593.05	0.245
593.26	0.243
593.46	0.242
593.66	0.242
593.86	0.242
594.07	0.240
594.27	0.240
594.47	0.240
594.68	0.239
594.88	0.240
595.08	0.238
595.29	0.239
595.49	0.237
595.69	0.237
595.90	0.236
596.10	0.236
596.30	0.236
596.50	0.235
596.71	0.235
596.91	0.234
597.11	0.233
597.32	0.233
597.52	0.231
597.72	0.231
597.93	0.230
598.13	0.228
598.33	0.229
598.53	0.227
598.74	0.227
598.94	0.226
599.14	0.226
599.35	0.226
599.55	0.226
599.75	0.225
599.95	0.224
600.16	0.224
600.36	0.222
600.56	0.222
600.76	0.221
600.97	0.219
601.17	0.219
601.37	0.219
601.58	0.217
601.78	0.217
601.98	0.217
602.18	0.215
602.39	0.215
602.59	0.215
602.79	0.215
602.99	0.215
603.20	0.214
603.40	0.213
603.60	0.214
603.80	0.214
604.01	0.213
604.21	0.212
604.41	0.212
604.61	0.210
604.82	0.210
605.02	0.211
605.22	0.210
605.42	0.210
605.62	0.210
605.83	0.208
606.03	0.208
606.23	0.208
606.43	0.208
606.64	0.207
606.84	0.207
607.04	0.206
607.24	0.206
607.45	0.205
607.65	0.203
607.85	0.204
608.05	0.203
608.25	0.202
608.46	0.202
608.66	0.202
608.86	0.201
609.06	0.200
609.26	0.199
609.47	0.200
609.67	0.199
609.87	0.200
610.07	0.199
610.28	0.197
610.48	0.197
610.68	0.198
610.88	0.196
611.08	0.197
611.29	0.196
611.49	0.196
611.69	0.197
611.89	0.195
612.09	0.195
612.29	0.194
612.50	0.194
612.70	0.194
612.90	0.192
613.10	0.191
613.30	0.191
613.51	0.191
613.71	0.190
613.91	0.194
614.11	0.189
614.31	0.189
614.51	0.189
614.72	0.188
614.92	0.188
615.12	0.188
615.32	0.188
615.52	0.187
615.72	0.188
615.93	0.188
616.13	0.187
616.33	0.188
616.53	0.187
616.73	0.187
616.93	0.186
617.14	0.187
617.34	0.187
617.54	0.187
617.74	0.187
617.94	0.185
618.14	0.185
618.34	0.184
618.55	0.184
618.75	0.184
618.95	0.184
619.15	0.183
619.35	0.182
619.55	0.181
619.75	0.182
619.96	0.181
620.16	0.181
620.36	0.181
620.56	0.180
620.76	0.180
620.96	0.180
621.16	0.180
621.36	0.180
621.57	0.180
621.77	0.180
621.97	0.178
622.17	0.178
622.37	0.179
622.57	0.179
622.77	0.178
622.97	0.177
623.18	0.177
623.38	0.177
623.58	0.177
623.78	0.176
623.98	0.176
624.18	0.175
624.38	0.175
624.58	0.175
624.78	0.175
624.98	0.175
625.19	0.174
625.39	0.174
625.59	0.174
625.79	0.174
625.99	0.173
626.19	0.174
626.39	0.174
626.59	0.173
626.79	0.173
626.99	0.173
627.19	0.172
627.40	0.173
627.60	0.172
627.80	0.172
628.00	0.173
628.20	0.172
628.40	0.172
628.60	0.171
628.80	0.170
629.00	0.171
629.20	0.170
629.40	0.170
629.60	0.168
629.80	0.168
630.00	0.168
630.20	0.167
630.41	0.167
630.61	0.167
630.81	0.166
631.01	0.166
631.21	0.165
631.41	0.165
631.61	0.166
631.81	0.166
632.01	0.166
632.21	0.166
632.41	0.164
632.61	0.164
632.81	0.164
633.01	0.165
633.21	0.165
633.41	0.165
633.61	0.164
633.81	0.164
634.01	0.163
634.21	0.163
634.41	0.163
634.61	0.164
634.81	0.163
635.01	0.163
635.22	0.163
