SpectraSuite Data File
++++++++++++++++++++++++++++++++++++
Date: Mon May 20 12:12:20 CDT 2013
User: Students
Dark Spectrum Present: Yes
Reference Spectrum Present: Yes
Number of Sampled Component Spectra: 1
Spectrometers: USB4H00887
Integration Time (usec): 60000 (USB4H00887)
Spectra Averaged: 5 (USB4H00887)
Boxcar Smoothing: 5 (USB4H00887)
Correct for Electrical Dark: No (USB4H00887)
Strobe/Lamp Enabled: No (USB4H00887)
Correct for Detector Non-linearity: No (USB4H00887)
Correct for Stray Light: No (USB4H00887)
Number of Pixels in Processed Spectrum: 3648
>>>>>Begin Processed Spectral Data<<<<<
345.83	-0.189
346.05	-0.189
346.26	-0.189
346.48	-0.000
346.70	-0.139
346.92	0.136
347.14	0.085
347.35	0.081
347.57	0.483
347.79	-0.275
348.01	-0.171
348.23	-0.321
348.44	-0.000
348.66	0.198
348.88	-0.293
349.10	-0.124
349.32	0.031
349.53	0.014
349.75	-0.004
349.97	-0.001
350.19	0.034
350.41	0.000
350.62	0.018
350.84	-0.010
351.06	-0.024
351.28	-0.064
351.50	-0.276
351.71	-0.186
351.93	-0.143
352.15	-0.024
352.37	-0.090
352.58	-0.032
352.80	0.003
353.02	0.039
353.24	0.059
353.46	0.358
353.67	-0.198
353.89	0.068
354.11	0.052
354.33	0.055
354.54	0.086
354.76	0.192
354.98	0.366
355.20	0.260
355.41	0.100
355.63	0.190
355.85	0.078
356.07	0.277
356.28	0.052
356.50	0.092
356.72	0.034
356.94	0.113
357.15	0.057
357.37	-0.000
357.59	0.016
357.81	-0.025
358.02	-0.016
358.24	-0.006
358.46	0.040
358.68	0.009
358.89	0.016
359.11	-0.000
359.33	0.012
359.55	-0.341
359.76	0.069
359.98	0.061
360.20	0.084
360.42	0.090
360.63	0.102
360.85	0.072
361.07	0.394
361.29	0.062
361.50	0.216
361.72	0.083
361.94	0.311
362.15	0.136
362.37	0.097
362.59	0.093
362.81	0.144
363.02	0.241
363.24	0.418
363.46	0.225
363.68	0.320
363.89	0.171
364.11	0.252
364.33	0.309
364.54	0.179
364.76	0.212
364.98	0.218
365.20	0.223
365.41	0.141
365.63	0.178
365.85	0.126
366.06	0.393
366.28	0.518
366.50	0.357
366.71	0.130
366.93	0.146
367.15	0.145
367.37	0.124
367.58	0.170
367.80	0.186
368.02	0.567
368.23	0.193
368.45	0.172
368.67	0.122
368.88	0.120
369.10	-0.000
369.32	0.137
369.53	0.075
369.75	0.133
369.97	0.380
370.19	0.228
370.40	0.096
370.62	0.209
370.84	0.090
371.05	0.674
371.27	0.130
371.49	0.135
371.70	0.180
371.92	0.260
372.14	0.123
372.35	0.119
372.57	0.132
372.79	0.307
373.00	0.077
373.22	0.108
373.44	0.083
373.65	0.073
373.87	0.131
374.09	0.489
374.30	0.130
374.52	0.127
374.74	0.090
374.95	0.378
375.17	0.110
375.39	-0.000
375.60	0.152
375.82	0.279
376.04	0.130
376.25	0.138
376.47	0.091
376.68	0.199
376.90	0.114
377.12	0.274
377.33	0.134
377.55	0.326
377.77	0.149
377.98	0.204
378.20	0.108
378.42	0.134
378.63	0.155
378.85	-0.000
379.07	0.098
379.28	0.332
379.50	0.208
379.71	0.138
379.93	0.092
380.15	0.129
380.36	0.193
380.58	0.149
380.80	0.363
381.01	0.112
381.23	0.113
381.44	0.121
381.66	0.157
381.88	0.207
382.09	-0.081
382.31	0.124
382.53	0.141
382.74	0.779
382.96	0.204
383.17	0.170
383.39	0.251
383.61	0.339
383.82	0.218
384.04	0.237
384.25	0.272
384.47	0.258
384.69	0.240
384.90	0.217
385.12	0.454
385.33	0.294
385.55	0.234
385.77	0.361
385.98	0.185
386.20	0.277
386.41	0.239
386.63	0.272
386.85	0.218
387.06	0.267
387.28	0.410
387.49	0.268
387.71	0.195
387.93	0.162
388.14	0.456
388.36	0.184
388.57	0.165
388.79	0.193
389.01	1.268
389.22	0.274
389.44	0.254
389.65	0.217
389.87	0.214
390.08	0.250
390.30	0.199
390.52	0.391
390.73	0.394
390.95	0.274
391.16	0.266
391.38	-0.000
391.59	0.271
391.81	0.219
392.03	0.201
392.24	0.240
392.46	0.197
392.67	0.180
392.89	0.249
393.10	0.384
393.32	0.254
393.53	0.283
393.75	0.189
393.97	0.227
394.18	0.321
394.40	0.268
394.61	0.284
394.83	0.250
395.04	0.298
395.26	0.198
395.47	0.313
395.69	0.262
395.91	0.281
396.12	0.321
396.34	0.316
396.55	0.205
396.77	0.305
396.98	1.476
397.20	0.394
397.41	0.413
397.63	0.306
397.84	0.259
398.06	0.251
398.27	0.249
398.49	0.290
398.71	0.214
398.92	0.251
399.14	0.322
399.35	0.369
399.57	0.343
399.78	0.249
400.00	0.229
400.21	0.278
400.43	0.232
400.64	0.249
400.86	0.554
401.07	0.318
401.29	0.273
401.50	0.292
401.72	0.433
401.93	0.277
402.15	0.328
402.36	0.312
402.58	0.263
402.79	0.281
403.01	0.456
403.22	0.357
403.44	0.248
403.65	0.399
403.87	0.436
404.08	0.329
404.30	0.530
404.51	0.298
404.73	0.366
404.94	0.324
405.16	0.335
405.37	0.273
405.59	0.481
405.80	0.302
406.02	0.390
406.23	0.387
406.45	0.445
406.66	0.484
406.88	0.319
407.09	0.482
407.31	0.377
407.52	0.453
407.74	0.357
407.95	0.438
408.17	0.405
408.38	0.404
408.60	0.265
408.81	0.454
409.03	0.339
409.24	0.333
409.45	0.386
409.67	0.362
409.88	0.335
410.10	0.424
410.31	0.350
410.53	0.332
410.74	0.465
410.96	0.469
411.17	0.476
411.39	0.361
411.60	0.332
411.82	0.371
412.03	0.367
412.24	0.351
412.46	0.499
412.67	0.419
412.89	0.418
413.10	0.412
413.32	0.371
413.53	0.427
413.75	0.447
413.96	0.345
414.17	0.457
414.39	0.462
414.60	0.380
414.82	0.487
415.03	0.367
415.25	0.392
415.46	0.280
415.68	0.393
415.89	0.642
416.10	0.535
416.32	0.312
416.53	0.363
416.75	0.348
416.96	0.416
417.18	0.362
417.39	0.352
417.60	0.365
417.82	0.522
418.03	0.462
418.25	0.396
418.46	0.408
418.67	0.386
418.89	0.417
419.10	0.431
419.32	0.569
419.53	0.515
419.75	0.452
419.96	0.405
420.17	0.487
420.39	0.458
420.60	0.475
420.82	0.583
421.03	0.468
421.24	0.394
421.46	0.432
421.67	0.469
421.89	0.416
422.10	0.448
422.31	0.441
422.53	0.610
422.74	0.450
422.96	0.365
423.17	0.401
423.38	0.487
423.60	0.415
423.81	0.508
424.03	0.437
424.24	0.488
424.45	0.481
424.67	0.474
424.88	0.429
425.09	0.466
425.31	0.429
425.52	0.457
425.74	0.514
425.95	0.558
426.16	0.440
426.38	0.509
426.59	0.465
426.80	0.522
427.02	0.545
427.23	0.438
427.45	0.563
427.66	0.550
427.87	0.429
428.09	0.451
428.30	0.496
428.51	0.492
428.73	0.545
428.94	0.482
429.15	0.470
429.37	0.444
429.58	0.462
429.79	0.435
430.01	0.520
430.22	0.523
430.44	0.528
430.65	0.480
430.86	0.507
431.08	0.486
431.29	0.459
431.50	0.538
431.72	0.716
431.93	0.601
432.14	0.457
432.36	0.493
432.57	0.504
432.78	0.526
433.00	0.487
433.21	0.487
433.42	0.596
433.64	0.523
433.85	0.591
434.06	0.485
434.28	0.509
434.49	0.524
434.70	0.535
434.92	0.546
435.13	0.574
435.34	0.576
435.56	0.547
435.77	0.544
435.98	0.672
436.20	0.569
436.41	0.492
436.62	0.483
436.83	0.538
437.05	0.599
437.26	0.530
437.47	0.481
437.69	0.523
437.90	0.480
438.11	0.473
438.33	0.516
438.54	0.530
438.75	0.658
438.97	0.644
439.18	0.504
439.39	0.520
439.60	0.562
439.82	0.530
440.03	0.499
440.24	0.696
440.46	0.542
440.67	0.520
440.88	0.554
441.10	0.523
441.31	0.524
441.52	0.568
441.73	0.630
441.95	0.562
442.16	0.525
442.37	0.766
442.58	0.511
442.80	0.508
443.01	0.644
443.22	0.605
443.44	0.516
443.65	0.599
443.86	0.600
444.07	0.642
444.29	0.563
444.50	0.703
444.71	0.550
444.92	0.518
445.14	0.640
445.35	0.667
445.56	0.534
445.78	0.619
445.99	0.617
446.20	0.542
446.41	0.603
446.63	0.604
446.84	0.567
447.05	0.570
447.26	0.671
447.48	0.580
447.69	0.554
447.90	0.627
448.11	0.572
448.33	0.591
448.54	0.601
448.75	0.623
448.96	0.632
449.18	0.665
449.39	0.602
449.60	0.585
449.81	0.693
450.03	0.615
450.24	0.657
450.45	0.620
450.66	0.605
450.87	0.636
451.09	0.600
451.30	0.587
451.51	0.643
451.72	0.652
451.94	0.666
452.15	0.716
452.36	0.611
452.57	0.625
452.78	0.625
453.00	0.651
453.21	0.615
453.42	0.592
453.63	0.661
453.85	0.632
454.06	0.631
454.27	0.721
454.48	0.653
454.69	0.595
454.91	0.644
455.12	0.572
455.33	0.637
455.54	0.648
455.75	0.635
455.97	0.656
456.18	0.652
456.39	0.656
456.60	0.684
456.81	0.631
457.03	0.647
457.24	0.646
457.45	0.714
457.66	0.671
457.87	0.637
458.09	0.647
458.30	0.582
458.51	0.673
458.72	0.685
458.93	0.690
459.15	0.624
459.36	0.667
459.57	0.687
459.78	0.720
459.99	0.652
460.20	0.627
460.42	0.687
460.63	0.651
460.84	0.641
461.05	0.663
461.26	0.705
461.47	0.641
461.69	0.680
461.90	0.704
462.11	0.673
462.32	0.716
462.53	0.673
462.74	0.743
462.96	0.663
463.17	0.657
463.38	0.685
463.59	0.770
463.80	0.661
464.01	0.679
464.23	0.741
464.44	0.710
464.65	0.719
464.86	0.732
465.07	0.737
465.28	0.707
465.49	0.722
465.71	0.690
465.92	0.716
466.13	0.751
466.34	0.700
466.55	0.740
466.76	0.715
466.97	0.729
467.19	0.721
467.40	0.746
467.61	0.747
467.82	0.689
468.03	0.675
468.24	0.729
468.45	0.755
468.66	0.745
468.88	0.752
469.09	0.753
469.30	0.784
469.51	0.730
469.72	0.761
469.93	0.740
470.14	0.726
470.35	0.788
470.57	0.748
470.78	0.707
470.99	0.802
471.20	0.760
471.41	0.730
471.62	0.771
471.83	0.753
472.04	0.773
472.25	0.803
472.47	0.743
472.68	0.749
472.89	0.752
473.10	0.783
473.31	0.747
473.52	0.787
473.73	0.798
473.94	0.741
474.15	0.759
474.36	0.758
474.57	0.778
474.79	0.759
475.00	0.761
475.21	0.753
475.42	0.812
475.63	0.744
475.84	0.770
476.05	0.776
476.26	0.758
476.47	0.783
476.68	0.820
476.89	0.771
477.10	0.807
477.32	0.797
477.53	0.837
477.74	0.780
477.95	0.813
478.16	0.774
478.37	0.806
478.58	0.809
478.79	0.818
479.00	0.818
479.21	0.790
479.42	0.821
479.63	0.823
479.84	0.791
480.05	0.794
480.26	0.808
480.47	0.821
480.69	0.820
480.90	0.796
481.11	0.797
481.32	0.836
481.53	0.793
481.74	0.828
481.95	0.805
482.16	0.816
482.37	0.820
482.58	0.799
482.79	0.810
483.00	0.831
483.21	0.793
483.42	0.772
483.63	0.824
483.84	0.841
484.05	0.835
484.26	0.815
484.47	0.817
484.68	0.792
484.89	0.800
485.10	0.834
485.31	0.818
485.52	0.824
485.73	0.824
485.94	0.852
486.15	0.817
486.37	0.825
486.58	0.801
486.79	0.810
487.00	0.841
487.21	0.835
487.42	0.832
487.63	0.838
487.84	0.849
488.05	0.848
488.26	0.819
488.47	0.825
488.68	0.848
488.89	0.833
489.10	0.828
489.31	0.837
489.52	0.858
489.73	0.837
489.94	0.862
490.15	0.831
490.36	0.857
490.57	0.827
490.78	0.815
490.99	0.840
491.20	0.892
491.41	0.862
491.62	0.824
491.83	0.845
492.04	0.842
492.25	0.847
492.45	0.849
492.66	0.868
492.87	0.859
493.08	0.852
493.29	0.843
493.50	0.835
493.71	0.844
493.92	0.840
494.13	0.852
494.34	0.865
494.55	0.870
494.76	0.890
494.97	0.883
495.18	0.860
495.39	0.870
495.60	0.835
495.81	0.836
496.02	0.848
496.23	0.843
496.44	0.863
496.65	0.859
496.86	0.863
497.07	0.881
497.28	0.879
497.49	0.844
497.70	0.844
497.91	0.859
498.12	0.848
498.32	0.878
498.53	0.868
498.74	0.860
498.95	0.876
499.16	0.845
499.37	0.846
499.58	0.853
499.79	0.876
500.00	0.875
500.21	0.893
500.42	0.854
500.63	0.855
500.84	0.867
501.05	0.854
501.26	0.871
501.46	0.897
501.67	0.873
501.88	0.874
502.09	0.856
502.30	0.860
502.51	0.894
502.72	0.864
502.93	0.876
503.14	0.893
503.35	0.873
503.56	0.870
503.77	0.891
503.97	0.875
504.18	0.875
504.39	0.899
504.60	0.878
504.81	0.897
505.02	0.889
505.23	0.888
505.44	0.875
505.65	0.881
505.86	0.868
506.07	0.913
506.27	0.887
506.48	0.889
506.69	0.878
506.90	0.891
507.11	0.890
507.32	0.875
507.53	0.881
507.74	0.876
507.95	0.885
508.15	0.889
508.36	0.891
508.57	0.898
508.78	0.887
508.99	0.886
509.20	0.869
509.41	0.888
509.62	0.879
509.82	0.878
510.03	0.884
510.24	0.885
510.45	0.901
510.66	0.896
510.87	0.893
511.08	0.868
511.29	0.898
511.49	0.881
511.70	0.911
511.91	0.866
512.12	0.864
512.33	0.886
512.54	0.897
512.75	0.885
512.95	0.903
513.16	0.896
513.37	0.879
513.58	0.904
513.79	0.880
514.00	0.883
514.20	0.894
514.41	0.886
514.62	0.866
514.83	0.892
515.04	0.886
515.25	0.872
515.46	0.881
515.66	0.882
515.87	0.889
516.08	0.867
516.29	0.884
516.50	0.871
516.71	0.865
516.91	0.871
517.12	0.882
517.33	0.872
517.54	0.862
517.75	0.862
517.95	0.871
518.16	0.878
518.37	0.857
518.58	0.862
518.79	0.846
519.00	0.869
519.20	0.876
519.41	0.856
519.62	0.871
519.83	0.877
520.04	0.852
520.24	0.850
520.45	0.857
520.66	0.871
520.87	0.846
521.08	0.842
521.28	0.844
521.49	0.855
521.70	0.836
521.91	0.845
522.12	0.831
522.32	0.846
522.53	0.834
522.74	0.825
522.95	0.833
523.16	0.831
523.36	0.838
523.57	0.824
523.78	0.821
523.99	0.825
524.20	0.820
524.40	0.830
524.61	0.834
524.82	0.816
525.03	0.820
525.23	0.819
525.44	0.808
525.65	0.807
525.86	0.822
526.06	0.802
526.27	0.800
526.48	0.806
526.69	0.792
526.90	0.795
527.10	0.818
527.31	0.787
527.52	0.783
527.73	0.778
527.93	0.785
528.14	0.789
528.35	0.783
528.56	0.784
528.76	0.779
528.97	0.772
529.18	0.766
529.39	0.766
529.59	0.768
529.80	0.789
530.01	0.771
530.22	0.769
530.42	0.747
530.63	0.758
530.84	0.741
531.05	0.751
531.25	0.753
531.46	0.746
531.67	0.730
531.88	0.743
532.08	0.738
532.29	0.734
532.50	0.728
532.70	0.724
532.91	0.717
533.12	0.719
533.33	0.737
533.53	0.715
533.74	0.714
533.95	0.720
534.15	0.711
534.36	0.712
534.57	0.699
534.78	0.702
534.98	0.710
535.19	0.687
535.40	0.688
535.60	0.701
535.81	0.685
536.02	0.688
536.23	0.680
536.43	0.682
536.64	0.672
536.85	0.679
537.05	0.685
537.26	0.666
537.47	0.670
537.67	0.662
537.88	0.658
538.09	0.664
538.30	0.655
538.50	0.649
538.71	0.657
538.92	0.646
539.12	0.643
539.33	0.639
539.54	0.639
539.74	0.642
539.95	0.635
540.16	0.632
540.36	0.625
540.57	0.626
540.78	0.620
540.98	0.620
541.19	0.619
541.40	0.608
541.60	0.616
541.81	0.612
542.02	0.612
542.22	0.605
542.43	0.600
542.64	0.597
542.84	0.596
543.05	0.590
543.26	0.590
543.46	0.593
543.67	0.593
543.88	0.588
544.08	0.580
544.29	0.576
544.50	0.575
544.70	0.576
544.91	0.569
545.12	0.570
545.32	0.567
545.53	0.570
545.74	0.559
545.94	0.557
546.15	0.555
546.35	0.553
546.56	0.550
546.77	0.548
546.97	0.547
547.18	0.540
547.39	0.541
547.59	0.538
547.80	0.536
548.01	0.540
548.21	0.536
548.42	0.530
548.62	0.529
548.83	0.527
549.04	0.524
549.24	0.518
549.45	0.517
549.65	0.514
549.86	0.511
550.07	0.510
550.27	0.508
550.48	0.515
550.69	0.503
550.89	0.504
551.10	0.501
551.30	0.500
551.51	0.500
551.72	0.492
551.92	0.493
552.13	0.492
552.33	0.493
552.54	0.489
552.75	0.483
552.95	0.484
553.16	0.479
553.36	0.478
553.57	0.476
553.78	0.474
553.98	0.475
554.19	0.467
554.39	0.465
554.60	0.467
554.80	0.467
555.01	0.461
555.22	0.462
555.42	0.460
555.63	0.454
555.83	0.457
556.04	0.452
556.25	0.454
556.45	0.446
556.66	0.445
556.86	0.449
557.07	0.446
557.27	0.445
557.48	0.441
557.68	0.438
557.89	0.439
558.10	0.436
558.30	0.433
558.51	0.432
558.71	0.431
558.92	0.427
559.12	0.428
559.33	0.432
559.54	0.428
559.74	0.424
559.95	0.422
560.15	0.422
560.36	0.420
560.56	0.415
560.77	0.415
560.97	0.415
561.18	0.410
561.38	0.410
561.59	0.412
561.79	0.408
562.00	0.407
562.21	0.405
562.41	0.404
562.62	0.404
562.82	0.402
563.03	0.399
563.23	0.399
563.44	0.399
563.64	0.395
563.85	0.396
564.05	0.390
564.26	0.389
564.46	0.389
564.67	0.390
564.87	0.386
565.08	0.383
565.28	0.383
565.49	0.384
565.69	0.381
565.90	0.379
566.10	0.381
566.31	0.375
566.51	0.377
566.72	0.378
566.92	0.371
567.13	0.371
567.33	0.370
567.54	0.369
567.74	0.368
567.95	0.364
568.15	0.365
568.36	0.365
568.56	0.364
568.77	0.360
568.97	0.359
569.18	0.359
569.38	0.358
569.59	0.359
569.79	0.356
570.00	0.354
570.20	0.353
570.41	0.352
570.61	0.351
570.82	0.352
571.02	0.349
571.23	0.351
571.43	0.347
571.64	0.345
571.84	0.344
572.05	0.343
572.25	0.342
572.45	0.340
572.66	0.338
572.86	0.337
573.07	0.336
573.27	0.336
573.48	0.335
573.68	0.331
573.89	0.331
574.09	0.332
574.30	0.331
574.50	0.329
574.70	0.329
574.91	0.327
575.11	0.327
575.32	0.327
575.52	0.323
575.73	0.323
575.93	0.323
576.14	0.322
576.34	0.320
576.54	0.319
576.75	0.318
576.95	0.317
577.16	0.315
577.36	0.314
577.57	0.314
577.77	0.313
577.97	0.310
578.18	0.312
578.38	0.309
578.59	0.308
578.79	0.306
579.00	0.306
579.20	0.305
579.40	0.304
579.61	0.304
579.81	0.303
580.02	0.301
580.22	0.301
580.42	0.299
580.63	0.299
580.83	0.298
581.04	0.296
581.24	0.296
581.45	0.295
581.65	0.295
581.85	0.294
582.06	0.292
582.26	0.292
582.47	0.290
582.67	0.291
582.87	0.290
583.08	0.288
583.28	0.289
583.48	0.287
583.69	0.285
583.89	0.285
584.10	0.286
584.30	0.283
584.50	0.282
584.71	0.281
584.91	0.281
585.12	0.278
585.32	0.279
585.52	0.276
585.73	0.275
585.93	0.275
586.13	0.275
586.34	0.274
586.54	0.274
586.75	0.273
586.95	0.272
587.15	0.272
587.36	0.271
587.56	0.270
587.76	0.270
587.97	0.269
588.17	0.268
588.37	0.267
588.58	0.268
588.78	0.265
588.98	0.265
589.19	0.264
589.39	0.262
589.60	0.264
589.80	0.262
590.00	0.261
590.21	0.261
590.41	0.259
590.61	0.260
590.82	0.259
591.02	0.258
591.22	0.256
591.43	0.258
591.63	0.256
591.83	0.255
592.04	0.254
592.24	0.255
592.44	0.253
592.65	0.252
592.85	0.252
593.05	0.252
593.26	0.250
593.46	0.250
593.66	0.250
593.86	0.249
594.07	0.247
594.27	0.247
594.47	0.246
594.68	0.246
594.88	0.247
595.08	0.246
595.29	0.247
595.49	0.244
595.69	0.244
595.90	0.242
596.10	0.243
596.30	0.242
596.50	0.240
596.71	0.240
596.91	0.240
597.11	0.239
597.32	0.238
597.52	0.237
597.72	0.237
597.93	0.237
598.13	0.235
598.33	0.235
598.53	0.235
598.74	0.234
598.94	0.234
599.14	0.234
599.35	0.234
599.55	0.233
599.75	0.232
599.95	0.231
600.16	0.232
600.36	0.230
600.56	0.231
600.76	0.230
600.97	0.228
601.17	0.227
601.37	0.227
601.58	0.226
601.78	0.226
601.98	0.226
602.18	0.225
602.39	0.225
602.59	0.225
602.79	0.224
602.99	0.224
603.20	0.223
603.40	0.223
603.60	0.223
603.80	0.222
604.01	0.222
604.21	0.221
604.41	0.221
604.61	0.220
604.82	0.219
605.02	0.219
605.22	0.218
605.42	0.218
605.62	0.218
605.83	0.217
606.03	0.216
606.23	0.216
606.43	0.216
606.64	0.216
606.84	0.215
607.04	0.215
607.24	0.215
607.45	0.215
607.65	0.214
607.85	0.215
608.05	0.213
608.25	0.212
608.46	0.212
608.66	0.212
608.86	0.212
609.06	0.211
609.26	0.210
609.47	0.210
609.67	0.209
609.87	0.210
610.07	0.209
610.28	0.208
610.48	0.208
610.68	0.208
610.88	0.207
611.08	0.207
611.29	0.206
611.49	0.205
611.69	0.206
611.89	0.203
612.09	0.203
612.29	0.203
612.50	0.203
612.70	0.203
612.90	0.202
613.10	0.202
613.30	0.202
613.51	0.202
613.71	0.201
613.91	0.206
614.11	0.201
614.31	0.201
614.51	0.200
614.72	0.199
614.92	0.199
615.12	0.199
615.32	0.199
615.52	0.198
615.72	0.198
615.93	0.199
616.13	0.198
616.33	0.199
616.53	0.198
616.73	0.199
616.93	0.197
617.14	0.198
617.34	0.197
617.54	0.198
617.74	0.198
617.94	0.196
618.14	0.196
618.34	0.195
618.55	0.194
618.75	0.195
618.95	0.194
619.15	0.194
619.35	0.193
619.55	0.192
619.75	0.193
619.96	0.192
620.16	0.192
620.36	0.192
620.56	0.191
620.76	0.191
620.96	0.190
621.16	0.190
621.36	0.190
621.57	0.190
621.77	0.191
621.97	0.190
622.17	0.190
622.37	0.190
622.57	0.190
622.77	0.190
622.97	0.188
623.18	0.189
623.38	0.189
623.58	0.188
623.78	0.188
623.98	0.188
624.18	0.187
624.38	0.186
624.58	0.186
624.78	0.187
624.98	0.186
625.19	0.186
625.39	0.186
625.59	0.185
625.79	0.186
625.99	0.185
626.19	0.185
626.39	0.185
626.59	0.185
626.79	0.184
626.99	0.184
627.19	0.184
627.40	0.184
627.60	0.183
627.80	0.183
628.00	0.183
628.20	0.182
628.40	0.181
628.60	0.181
628.80	0.180
629.00	0.180
629.20	0.179
629.40	0.180
629.60	0.179
629.80	0.179
630.00	0.179
630.20	0.179
630.41	0.178
630.61	0.178
630.81	0.178
631.01	0.178
631.21	0.177
631.41	0.178
631.61	0.178
631.81	0.177
632.01	0.177
632.21	0.177
632.41	0.176
632.61	0.175
632.81	0.175
633.01	0.176
633.21	0.176
633.41	0.176
633.61	0.174
633.81	0.174
634.01	0.173
634.21	0.174
634.41	0.173
634.61	0.174
634.81	0.173
635.01	0.173
