SpectraSuite Data File
++++++++++++++++++++++++++++++++++++
Date: Mon May 20 12:12:37 CDT 2013
User: Students
Dark Spectrum Present: Yes
Reference Spectrum Present: Yes
Number of Sampled Component Spectra: 1
Spectrometers: USB4H00887
Integration Time (usec): 60000 (USB4H00887)
Spectra Averaged: 5 (USB4H00887)
Boxcar Smoothing: 5 (USB4H00887)
Correct for Electrical Dark: No (USB4H00887)
Strobe/Lamp Enabled: No (USB4H00887)
Correct for Detector Non-linearity: No (USB4H00887)
Correct for Stray Light: No (USB4H00887)
Number of Pixels in Processed Spectrum: 3648
>>>>>Begin Processed Spectral Data<<<<<
345.83	-0.006
346.05	-0.006
346.26	-0.006
346.48	-0.000
346.70	0.228
346.92	0.064
347.14	0.040
347.35	0.042
347.57	0.202
347.79	-0.182
348.01	-0.138
348.23	-0.268
348.44	-0.000
348.66	0.204
348.88	-0.255
349.10	0.001
349.32	0.041
349.53	-0.019
349.75	-0.036
349.97	-0.032
350.19	-0.011
350.41	-0.064
350.62	0.367
350.84	-0.022
351.06	-0.032
351.28	-0.085
351.50	-0.255
351.71	-0.086
351.93	-0.048
352.15	-0.003
352.37	-0.022
352.58	-0.003
352.80	0.026
353.02	0.049
353.24	0.053
353.46	0.370
353.67	-0.147
353.89	0.060
354.11	0.026
354.33	0.039
354.54	0.054
354.76	0.085
354.98	0.103
355.20	0.090
355.41	0.059
355.63	0.118
355.85	0.056
356.07	1.111
356.28	0.076
356.50	0.149
356.72	0.047
356.94	0.154
357.15	0.226
357.37	-0.000
357.59	0.109
357.81	0.052
358.02	0.125
358.24	0.080
358.46	0.158
358.68	0.133
358.89	0.085
359.11	-0.000
359.33	0.085
359.55	-0.549
359.76	0.147
359.98	0.201
360.20	0.209
360.42	0.152
360.63	0.184
360.85	0.136
361.07	0.719
361.29	0.099
361.50	0.272
361.72	0.101
361.94	0.517
362.15	0.177
362.37	0.087
362.59	0.088
362.81	0.161
363.02	0.264
363.24	0.378
363.46	0.208
363.68	0.244
363.89	0.155
364.11	0.216
364.33	0.245
364.54	0.156
364.76	0.203
364.98	0.200
365.20	0.206
365.41	0.144
365.63	0.207
365.85	0.152
366.06	0.613
366.28	0.694
366.50	0.373
366.71	0.133
366.93	0.188
367.15	0.140
367.37	0.132
367.58	0.184
367.80	0.203
368.02	0.616
368.23	0.158
368.45	0.159
368.67	0.127
368.88	0.159
369.10	-0.000
369.32	0.187
369.53	0.127
369.75	0.211
369.97	0.479
370.19	0.265
370.40	0.099
370.62	0.305
370.84	0.104
371.05	0.865
371.27	0.147
371.49	0.183
371.70	0.193
371.92	0.314
372.14	0.137
372.35	0.152
372.57	0.175
372.79	0.443
373.00	0.105
373.22	0.187
373.44	0.165
373.65	0.120
373.87	0.165
374.09	0.630
374.30	0.120
374.52	0.124
374.74	0.087
374.95	0.368
375.17	0.119
375.39	-0.000
375.60	0.163
375.82	0.283
376.04	0.133
376.25	0.150
376.47	0.090
376.68	0.225
376.90	0.128
377.12	0.308
377.33	0.146
377.55	0.373
377.77	0.159
377.98	0.231
378.20	0.138
378.42	0.163
378.63	0.207
378.85	-0.000
379.07	0.157
379.28	0.689
379.50	0.399
379.71	0.192
379.93	0.128
380.15	0.180
380.36	0.269
380.58	0.192
380.80	0.551
381.01	0.167
381.23	0.131
381.44	0.140
381.66	0.149
381.88	0.156
382.09	-0.076
382.31	0.110
382.53	0.114
382.74	0.497
382.96	0.148
383.17	0.129
383.39	0.154
383.61	0.193
383.82	0.126
384.04	0.165
384.25	0.224
384.47	0.213
384.69	0.221
384.90	0.211
385.12	0.454
385.33	0.298
385.55	0.211
385.77	0.349
385.98	0.184
386.20	0.235
386.41	0.207
386.63	0.227
386.85	0.186
387.06	0.215
387.28	0.334
387.49	0.219
387.71	0.160
387.93	0.152
388.14	0.444
388.36	0.188
388.57	0.197
388.79	0.221
389.01	2.542
389.22	0.269
389.44	0.239
389.65	0.206
389.87	0.197
390.08	0.235
390.30	0.196
390.52	0.379
390.73	0.371
390.95	0.248
391.16	0.228
391.38	-0.000
391.59	0.283
391.81	0.240
392.03	0.219
392.24	0.260
392.46	0.211
392.67	0.170
392.89	0.230
393.10	0.359
393.32	0.241
393.53	0.289
393.75	0.192
393.97	0.214
394.18	0.292
394.40	0.248
394.61	0.261
394.83	0.229
395.04	0.274
395.26	0.184
395.47	0.283
395.69	0.235
395.91	0.246
396.12	0.286
396.34	0.287
396.55	0.192
396.77	0.282
396.98	0.974
397.20	0.335
397.41	0.378
397.63	0.263
397.84	0.232
398.06	0.222
398.27	0.228
398.49	0.262
398.71	0.191
398.92	0.218
399.14	0.274
399.35	0.341
399.57	0.315
399.78	0.223
400.00	0.231
400.21	0.278
400.43	0.225
400.64	0.231
400.86	0.446
401.07	0.271
401.29	0.230
401.50	0.247
401.72	0.334
401.93	0.228
402.15	0.268
402.36	0.239
402.58	0.202
402.79	0.232
403.01	0.378
403.22	0.295
403.44	0.211
403.65	0.318
403.87	0.318
404.08	0.256
404.30	0.382
404.51	0.231
404.73	0.275
404.94	0.242
405.16	0.240
405.37	0.181
405.59	0.302
405.80	0.191
406.02	0.234
406.23	0.251
406.45	0.275
406.66	0.297
406.88	0.205
407.09	0.288
407.31	0.245
407.52	0.289
407.74	0.252
407.95	0.289
408.17	0.279
408.38	0.291
408.60	0.198
408.81	0.313
409.03	0.231
409.24	0.232
409.45	0.271
409.67	0.255
409.88	0.238
410.10	0.289
410.31	0.258
410.53	0.251
410.74	0.337
410.96	0.332
411.17	0.342
411.39	0.286
411.60	0.262
411.82	0.289
412.03	0.282
412.24	0.267
412.46	0.369
412.67	0.311
412.89	0.311
413.10	0.309
413.32	0.291
413.53	0.325
413.75	0.325
413.96	0.254
414.17	0.328
414.39	0.324
414.60	0.275
414.82	0.333
415.03	0.273
415.25	0.291
415.46	0.214
415.68	0.280
415.89	0.429
416.10	0.380
416.32	0.242
416.53	0.271
416.75	0.263
416.96	0.298
417.18	0.270
417.39	0.255
417.60	0.262
417.82	0.345
418.03	0.314
418.25	0.264
418.46	0.276
418.67	0.259
418.89	0.273
419.10	0.285
419.32	0.360
419.53	0.332
419.75	0.293
419.96	0.265
420.17	0.315
420.39	0.290
420.60	0.305
420.82	0.349
421.03	0.306
421.24	0.266
421.46	0.278
421.67	0.296
421.89	0.264
422.10	0.281
422.31	0.271
422.53	0.340
422.74	0.276
422.96	0.230
423.17	0.249
423.38	0.283
423.60	0.251
423.81	0.300
424.03	0.266
424.24	0.285
424.45	0.274
424.67	0.277
424.88	0.259
425.09	0.278
425.31	0.262
425.52	0.273
425.74	0.295
425.95	0.308
426.16	0.257
426.38	0.287
426.59	0.273
426.80	0.310
427.02	0.317
427.23	0.260
427.45	0.312
427.66	0.306
427.87	0.259
428.09	0.268
428.30	0.286
428.51	0.279
428.73	0.295
428.94	0.267
429.15	0.257
429.37	0.245
429.58	0.256
429.79	0.240
430.01	0.270
430.22	0.270
430.44	0.273
430.65	0.253
430.86	0.269
431.08	0.259
431.29	0.247
431.50	0.279
431.72	0.327
431.93	0.291
432.14	0.243
432.36	0.261
432.57	0.263
432.78	0.271
433.00	0.257
433.21	0.250
433.42	0.290
433.64	0.257
433.85	0.274
434.06	0.238
434.28	0.246
434.49	0.246
434.70	0.247
434.92	0.245
435.13	0.255
435.34	0.259
435.56	0.254
435.77	0.253
435.98	0.296
436.20	0.268
436.41	0.245
436.62	0.241
436.83	0.262
437.05	0.279
437.26	0.262
437.47	0.239
437.69	0.251
437.90	0.235
438.11	0.231
438.33	0.244
438.54	0.249
438.75	0.289
438.97	0.287
439.18	0.245
439.39	0.252
439.60	0.260
439.82	0.250
440.03	0.233
440.24	0.286
440.46	0.246
440.67	0.239
440.88	0.247
441.10	0.237
441.31	0.236
441.52	0.249
441.73	0.266
441.95	0.249
442.16	0.238
442.37	0.305
442.58	0.240
442.80	0.239
443.01	0.277
443.22	0.266
443.44	0.241
443.65	0.260
443.86	0.257
444.07	0.264
444.29	0.245
444.50	0.279
444.71	0.239
444.92	0.229
445.14	0.262
445.35	0.266
445.56	0.231
445.78	0.250
445.99	0.253
446.20	0.230
446.41	0.247
446.63	0.242
446.84	0.232
447.05	0.232
447.26	0.256
447.48	0.235
447.69	0.233
447.90	0.249
448.11	0.237
448.33	0.242
448.54	0.247
448.75	0.252
448.96	0.254
449.18	0.261
449.39	0.245
449.60	0.239
449.81	0.258
450.03	0.237
450.24	0.248
450.45	0.239
450.66	0.235
450.87	0.240
451.09	0.231
451.30	0.229
451.51	0.241
451.72	0.244
451.94	0.250
452.15	0.261
452.36	0.240
452.57	0.244
452.78	0.241
453.00	0.244
453.21	0.235
453.42	0.227
453.63	0.244
453.85	0.238
454.06	0.236
454.27	0.255
454.48	0.243
454.69	0.230
454.91	0.238
455.12	0.224
455.33	0.238
455.54	0.239
455.75	0.238
455.97	0.241
456.18	0.242
456.39	0.241
456.60	0.244
456.81	0.234
457.03	0.232
457.24	0.233
457.45	0.242
457.66	0.233
457.87	0.227
458.09	0.228
458.30	0.213
458.51	0.231
458.72	0.234
458.93	0.234
459.15	0.220
459.36	0.230
459.57	0.233
459.78	0.241
459.99	0.230
460.20	0.223
460.42	0.233
460.63	0.225
460.84	0.221
461.05	0.223
461.26	0.231
461.47	0.219
461.69	0.226
461.90	0.230
462.11	0.223
462.32	0.232
462.53	0.227
462.74	0.239
462.96	0.226
463.17	0.223
463.38	0.227
463.59	0.241
463.80	0.220
464.01	0.224
464.23	0.233
464.44	0.230
464.65	0.228
464.86	0.229
465.07	0.231
465.28	0.226
465.49	0.230
465.71	0.225
465.92	0.230
466.13	0.238
466.34	0.230
466.55	0.236
466.76	0.229
466.97	0.233
467.19	0.233
467.40	0.238
467.61	0.238
467.82	0.228
468.03	0.225
468.24	0.233
468.45	0.234
468.66	0.231
468.88	0.230
469.09	0.231
469.30	0.233
469.51	0.226
469.72	0.229
469.93	0.225
470.14	0.224
470.35	0.233
470.57	0.229
470.78	0.224
470.99	0.238
471.20	0.233
471.41	0.229
471.62	0.235
471.83	0.230
472.04	0.231
472.25	0.235
472.47	0.226
472.68	0.226
472.89	0.226
473.10	0.230
473.31	0.224
473.52	0.229
473.73	0.230
473.94	0.224
474.15	0.227
474.36	0.228
474.57	0.230
474.79	0.228
475.00	0.228
475.21	0.227
475.42	0.235
475.63	0.226
475.84	0.229
476.05	0.230
476.26	0.225
476.47	0.228
476.68	0.232
476.89	0.226
477.10	0.230
477.32	0.229
477.53	0.233
477.74	0.225
477.95	0.228
478.16	0.224
478.37	0.226
478.58	0.227
478.79	0.228
479.00	0.227
479.21	0.223
479.42	0.226
479.63	0.226
479.84	0.223
480.05	0.224
480.26	0.227
480.47	0.229
480.69	0.230
480.90	0.227
481.11	0.227
481.32	0.233
481.53	0.227
481.74	0.232
481.95	0.230
482.16	0.231
482.37	0.231
482.58	0.227
482.79	0.229
483.00	0.231
483.21	0.226
483.42	0.222
483.63	0.230
483.84	0.233
484.05	0.231
484.26	0.229
484.47	0.229
484.68	0.226
484.89	0.227
485.10	0.231
485.31	0.230
485.52	0.231
485.73	0.232
485.94	0.234
486.15	0.230
486.37	0.232
486.58	0.229
486.79	0.230
487.00	0.235
487.21	0.236
487.42	0.235
487.63	0.235
487.84	0.237
488.05	0.236
488.26	0.233
488.47	0.234
488.68	0.236
488.89	0.234
489.10	0.234
489.31	0.234
489.52	0.236
489.73	0.233
489.94	0.235
490.15	0.231
490.36	0.233
490.57	0.231
490.78	0.230
490.99	0.232
491.20	0.238
491.41	0.235
491.62	0.231
491.83	0.233
492.04	0.232
492.25	0.233
492.45	0.234
492.66	0.236
492.87	0.234
493.08	0.233
493.29	0.233
493.50	0.232
493.71	0.233
493.92	0.234
494.13	0.235
494.34	0.238
494.55	0.239
494.76	0.240
494.97	0.240
495.18	0.237
495.39	0.239
495.60	0.234
495.81	0.234
496.02	0.235
496.23	0.234
496.44	0.237
496.65	0.236
496.86	0.237
497.07	0.239
497.28	0.238
497.49	0.234
497.70	0.233
497.91	0.235
498.12	0.234
498.32	0.238
498.53	0.237
498.74	0.237
498.95	0.239
499.16	0.236
499.37	0.237
499.58	0.238
499.79	0.241
500.00	0.241
500.21	0.243
500.42	0.239
500.63	0.238
500.84	0.241
501.05	0.239
501.26	0.241
501.46	0.243
501.67	0.240
501.88	0.241
502.09	0.239
502.30	0.240
502.51	0.244
502.72	0.241
502.93	0.243
503.14	0.244
503.35	0.242
503.56	0.242
503.77	0.245
503.97	0.243
504.18	0.243
504.39	0.246
504.60	0.243
504.81	0.245
505.02	0.244
505.23	0.244
505.44	0.243
505.65	0.243
505.86	0.241
506.07	0.247
506.27	0.244
506.48	0.245
506.69	0.243
506.90	0.245
507.11	0.245
507.32	0.244
507.53	0.244
507.74	0.243
507.95	0.245
508.15	0.245
508.36	0.245
508.57	0.246
508.78	0.245
508.99	0.246
509.20	0.245
509.41	0.247
509.62	0.246
509.82	0.247
510.03	0.248
510.24	0.248
510.45	0.250
510.66	0.250
510.87	0.249
511.08	0.247
511.29	0.250
511.49	0.247
511.70	0.250
511.91	0.245
512.12	0.245
512.33	0.248
512.54	0.249
512.75	0.248
512.95	0.250
513.16	0.250
513.37	0.247
513.58	0.251
513.79	0.248
514.00	0.250
514.20	0.252
514.41	0.251
514.62	0.248
514.83	0.251
515.04	0.250
515.25	0.248
515.46	0.249
515.66	0.250
515.87	0.251
516.08	0.248
516.29	0.250
516.50	0.248
516.71	0.248
516.91	0.249
517.12	0.250
517.33	0.250
517.54	0.249
517.75	0.250
517.95	0.251
518.16	0.252
518.37	0.250
518.58	0.251
518.79	0.249
519.00	0.252
519.20	0.253
519.41	0.251
519.62	0.252
519.83	0.253
520.04	0.251
520.24	0.250
520.45	0.251
520.66	0.252
520.87	0.249
521.08	0.249
521.28	0.250
521.49	0.251
521.70	0.249
521.91	0.251
522.12	0.249
522.32	0.251
522.53	0.250
522.74	0.250
522.95	0.251
523.16	0.251
523.36	0.252
523.57	0.250
523.78	0.250
523.99	0.251
524.20	0.250
524.40	0.251
524.61	0.252
524.82	0.250
525.03	0.251
525.23	0.251
525.44	0.250
525.65	0.251
525.86	0.253
526.06	0.250
526.27	0.250
526.48	0.252
526.69	0.251
526.90	0.252
527.10	0.255
527.31	0.250
527.52	0.250
527.73	0.249
527.93	0.251
528.14	0.252
528.35	0.251
528.56	0.252
528.76	0.251
528.97	0.250
529.18	0.249
529.39	0.250
529.59	0.250
529.80	0.255
530.01	0.252
530.22	0.252
530.42	0.248
530.63	0.251
530.84	0.249
531.05	0.251
531.25	0.252
531.46	0.252
531.67	0.250
531.88	0.253
532.08	0.251
532.29	0.250
532.50	0.249
532.70	0.249
532.91	0.249
533.12	0.250
533.33	0.252
533.53	0.248
533.74	0.249
533.95	0.250
534.15	0.248
534.36	0.249
534.57	0.248
534.78	0.249
534.98	0.251
535.19	0.247
535.40	0.247
535.60	0.251
535.81	0.248
536.02	0.249
536.23	0.248
536.43	0.249
536.64	0.248
536.85	0.250
537.05	0.251
537.26	0.248
537.47	0.249
537.67	0.248
537.88	0.248
538.09	0.250
538.30	0.248
538.50	0.247
538.71	0.249
538.92	0.248
539.12	0.248
539.33	0.248
539.54	0.248
539.74	0.250
539.95	0.249
540.16	0.248
540.36	0.247
540.57	0.248
540.78	0.247
540.98	0.248
541.19	0.247
541.40	0.245
541.60	0.247
541.81	0.247
542.02	0.248
542.22	0.247
542.43	0.247
542.64	0.246
542.84	0.246
543.05	0.246
543.26	0.247
543.46	0.248
543.67	0.249
543.88	0.249
544.08	0.248
544.29	0.247
544.50	0.247
544.70	0.248
544.91	0.247
545.12	0.248
545.32	0.247
545.53	0.248
545.74	0.247
545.94	0.246
546.15	0.246
546.35	0.246
546.56	0.247
546.77	0.247
546.97	0.247
547.18	0.246
547.39	0.247
547.59	0.248
547.80	0.247
548.01	0.249
548.21	0.249
548.42	0.248
548.62	0.248
548.83	0.249
549.04	0.248
549.24	0.247
549.45	0.247
549.65	0.247
549.86	0.247
550.07	0.247
550.27	0.247
550.48	0.250
550.69	0.246
550.89	0.247
551.10	0.247
551.30	0.247
551.51	0.248
551.72	0.245
551.92	0.246
552.13	0.247
552.33	0.248
552.54	0.247
552.75	0.245
552.95	0.246
553.16	0.246
553.36	0.245
553.57	0.245
553.78	0.246
553.98	0.246
554.19	0.244
554.39	0.244
554.60	0.246
554.80	0.246
555.01	0.245
555.22	0.246
555.42	0.246
555.63	0.245
555.83	0.248
556.04	0.246
556.25	0.248
556.45	0.246
556.66	0.246
556.86	0.248
557.07	0.248
557.27	0.248
557.48	0.247
557.68	0.247
557.89	0.248
558.10	0.247
558.30	0.246
558.51	0.246
558.71	0.246
558.92	0.245
559.12	0.247
559.33	0.249
559.54	0.248
559.74	0.246
559.95	0.247
560.15	0.247
560.36	0.247
560.56	0.246
560.77	0.247
560.97	0.248
561.18	0.246
561.38	0.246
561.59	0.248
561.79	0.247
562.00	0.247
562.21	0.246
562.41	0.246
562.62	0.246
562.82	0.246
563.03	0.246
563.23	0.246
563.44	0.247
563.64	0.246
563.85	0.248
564.05	0.246
564.26	0.246
564.46	0.247
564.67	0.248
564.87	0.247
565.08	0.245
565.28	0.246
565.49	0.247
565.69	0.246
565.90	0.245
566.10	0.247
566.31	0.245
566.51	0.247
566.72	0.247
566.92	0.245
567.13	0.245
567.33	0.246
567.54	0.246
567.74	0.246
567.95	0.244
568.15	0.246
568.36	0.246
568.56	0.246
568.77	0.244
568.97	0.245
569.18	0.246
569.38	0.246
569.59	0.247
569.79	0.247
570.00	0.247
570.20	0.246
570.41	0.246
570.61	0.246
570.82	0.247
571.02	0.246
571.23	0.247
571.43	0.245
571.64	0.245
571.84	0.246
572.05	0.245
572.25	0.246
572.45	0.246
572.66	0.244
572.86	0.244
573.07	0.244
573.27	0.245
573.48	0.245
573.68	0.243
573.89	0.244
574.09	0.245
574.30	0.245
574.50	0.244
574.70	0.245
574.91	0.245
575.11	0.246
575.32	0.246
575.52	0.244
575.73	0.245
575.93	0.246
576.14	0.245
576.34	0.245
576.54	0.245
576.75	0.244
576.95	0.244
577.16	0.244
577.36	0.244
577.57	0.244
577.77	0.243
577.97	0.242
578.18	0.244
578.38	0.242
578.59	0.242
578.79	0.241
579.00	0.242
579.20	0.242
579.40	0.242
579.61	0.242
579.81	0.242
580.02	0.241
580.22	0.242
580.42	0.241
580.63	0.242
580.83	0.242
581.04	0.242
581.24	0.242
581.45	0.242
581.65	0.243
581.85	0.243
582.06	0.242
582.26	0.242
582.47	0.242
582.67	0.243
582.87	0.243
583.08	0.241
583.28	0.242
583.48	0.241
583.69	0.240
583.89	0.240
584.10	0.242
584.30	0.241
584.50	0.240
584.71	0.241
584.91	0.241
585.12	0.240
585.32	0.242
585.52	0.240
585.73	0.240
585.93	0.240
586.13	0.241
586.34	0.241
586.54	0.241
586.75	0.240
586.95	0.240
587.15	0.240
587.36	0.240
587.56	0.239
587.76	0.239
587.97	0.238
588.17	0.238
588.37	0.239
588.58	0.239
588.78	0.237
588.98	0.239
589.19	0.238
589.39	0.237
589.60	0.239
589.80	0.238
590.00	0.238
590.21	0.239
590.41	0.238
590.61	0.238
590.82	0.238
591.02	0.238
591.22	0.236
591.43	0.238
591.63	0.237
591.83	0.237
592.04	0.236
592.24	0.237
592.44	0.236
592.65	0.235
592.85	0.236
593.05	0.237
593.26	0.236
593.46	0.237
593.66	0.237
593.86	0.236
594.07	0.235
594.27	0.236
594.47	0.236
594.68	0.236
594.88	0.237
595.08	0.237
595.29	0.238
595.49	0.236
595.69	0.236
595.90	0.236
596.10	0.237
596.30	0.236
596.50	0.236
596.71	0.236
596.91	0.235
597.11	0.235
597.32	0.235
597.52	0.235
597.72	0.235
597.93	0.235
598.13	0.233
598.33	0.234
598.53	0.234
598.74	0.234
598.94	0.234
599.14	0.235
599.35	0.235
599.55	0.235
599.75	0.235
599.95	0.234
600.16	0.235
600.36	0.234
600.56	0.234
600.76	0.233
600.97	0.232
601.17	0.232
601.37	0.233
601.58	0.232
601.78	0.233
601.98	0.233
602.18	0.232
602.39	0.232
602.59	0.233
602.79	0.233
602.99	0.233
603.20	0.233
603.40	0.233
603.60	0.233
603.80	0.233
604.01	0.232
604.21	0.231
604.41	0.231
604.61	0.231
604.82	0.231
605.02	0.232
605.22	0.231
605.42	0.231
605.62	0.231
605.83	0.230
606.03	0.230
606.23	0.231
606.43	0.231
606.64	0.231
606.84	0.231
607.04	0.230
607.24	0.231
607.45	0.231
607.65	0.229
607.85	0.231
608.05	0.229
608.25	0.229
608.46	0.228
608.66	0.229
608.86	0.228
609.06	0.226
609.26	0.226
609.47	0.227
609.67	0.226
609.87	0.228
610.07	0.227
610.28	0.226
610.48	0.227
610.68	0.228
610.88	0.227
611.08	0.228
611.29	0.227
611.49	0.226
611.69	0.227
611.89	0.225
612.09	0.225
612.29	0.225
612.50	0.225
612.70	0.225
612.90	0.224
613.10	0.224
613.30	0.224
613.51	0.224
613.71	0.224
613.91	0.229
614.11	0.224
614.31	0.224
614.51	0.224
614.72	0.223
614.92	0.222
615.12	0.223
615.32	0.224
615.52	0.223
615.72	0.224
615.93	0.223
616.13	0.223
616.33	0.223
616.53	0.222
616.73	0.222
616.93	0.221
617.14	0.222
617.34	0.221
617.54	0.221
617.74	0.221
617.94	0.220
618.14	0.220
618.34	0.220
618.55	0.220
618.75	0.221
618.95	0.221
619.15	0.221
619.35	0.220
619.55	0.219
619.75	0.220
619.96	0.219
620.16	0.220
620.36	0.219
620.56	0.219
620.76	0.219
620.96	0.218
621.16	0.219
621.36	0.218
621.57	0.219
621.77	0.219
621.97	0.218
622.17	0.218
622.37	0.218
622.57	0.219
622.77	0.218
622.97	0.217
623.18	0.217
623.38	0.218
623.58	0.217
623.78	0.217
623.98	0.217
624.18	0.216
624.38	0.216
624.58	0.217
624.78	0.217
624.98	0.216
625.19	0.216
625.39	0.216
625.59	0.215
625.79	0.215
625.99	0.215
626.19	0.215
626.39	0.215
626.59	0.214
626.79	0.214
626.99	0.214
627.19	0.214
627.40	0.215
627.60	0.214
627.80	0.215
628.00	0.214
628.20	0.213
628.40	0.213
628.60	0.213
628.80	0.212
629.00	0.213
629.20	0.212
629.40	0.212
629.60	0.210
629.80	0.211
630.00	0.210
630.20	0.210
630.41	0.209
630.61	0.209
630.81	0.209
631.01	0.209
631.21	0.208
631.41	0.208
631.61	0.209
631.81	0.208
632.01	0.208
632.21	0.208
632.41	0.207
632.61	0.207
632.81	0.207
633.01	0.208
633.21	0.208
633.41	0.209
633.61	0.207
633.81	0.207
634.01	0.207
634.21	0.207
634.41	0.206
634.61	0.207
634.81	0.206
635.01	0.206
