SpectraSuite Data File
++++++++++++++++++++++++++++++++++++
Date: Mon May 20 12:11:11 CDT 2013
User: Students
Dark Spectrum Present: Yes
Reference Spectrum Present: Yes
Number of Sampled Component Spectra: 1
Spectrometers: USB4H00887
Integration Time (usec): 60000 (USB4H00887)
Spectra Averaged: 5 (USB4H00887)
Boxcar Smoothing: 5 (USB4H00887)
Correct for Electrical Dark: No (USB4H00887)
Strobe/Lamp Enabled: No (USB4H00887)
Correct for Detector Non-linearity: No (USB4H00887)
Correct for Stray Light: No (USB4H00887)
Number of Pixels in Processed Spectrum: 3648
>>>>>Begin Processed Spectral Data<<<<<
345.83	0.344
346.05	0.344
346.26	0.344
346.48	-0.000
346.70	0.041
346.92	-0.014
347.14	0.035
347.35	0.050
347.57	0.361
347.79	-0.243
348.01	-0.148
348.23	-0.289
348.44	-0.000
348.66	0.191
348.88	-0.288
349.10	-0.138
349.32	0.072
349.53	0.017
349.75	0.057
349.97	0.038
350.19	0.048
350.41	0.036
350.62	-0.174
350.84	0.002
351.06	0.030
351.28	-0.017
351.50	-0.132
351.71	-0.066
351.93	-0.069
352.15	-0.021
352.37	-0.082
352.58	-0.000
352.80	0.011
353.02	0.033
353.24	0.067
353.46	0.280
353.67	-0.185
353.89	0.051
354.11	0.057
354.33	0.063
354.54	0.104
354.76	0.162
354.98	0.219
355.20	0.149
355.41	0.069
355.63	0.100
355.85	0.050
356.07	0.250
356.28	0.056
356.50	0.084
356.72	0.031
356.94	0.067
357.15	0.110
357.37	-0.000
357.59	0.100
357.81	0.051
358.02	0.105
358.24	0.076
358.46	0.179
358.68	0.147
358.89	0.085
359.11	-0.000
359.33	0.087
359.55	-0.553
359.76	0.129
359.98	0.142
360.20	0.161
360.42	0.150
360.63	0.168
360.85	0.117
361.07	0.855
361.29	0.116
361.50	0.395
361.72	0.139
361.94	0.778
362.15	0.241
362.37	0.137
362.59	0.147
362.81	0.235
363.02	0.430
363.24	0.885
363.46	0.325
363.68	0.357
363.89	0.187
364.11	0.236
364.33	0.288
364.54	0.173
364.76	0.200
364.98	0.177
365.20	0.181
365.41	0.116
365.63	0.154
365.85	0.115
366.06	0.470
366.28	0.508
366.50	0.384
366.71	0.131
366.93	0.173
367.15	0.156
367.37	0.145
367.58	0.183
367.80	0.193
368.02	0.454
368.23	0.151
368.45	0.148
368.67	0.158
368.88	0.131
369.10	-0.000
369.32	0.123
369.53	0.079
369.75	0.118
369.97	0.276
370.19	0.174
370.40	0.086
370.62	0.261
370.84	0.085
371.05	0.407
371.27	0.150
371.49	0.187
371.70	0.203
371.92	0.296
372.14	0.128
372.35	0.129
372.57	0.129
372.79	0.286
373.00	0.062
373.22	0.096
373.44	0.085
373.65	0.056
373.87	0.079
374.09	0.318
374.30	0.101
374.52	0.119
374.74	0.076
374.95	0.307
375.17	0.103
375.39	-0.000
375.60	0.114
375.82	0.199
376.04	0.085
376.25	0.095
376.47	0.061
376.68	0.120
376.90	0.073
377.12	0.213
377.33	0.144
377.55	0.320
377.77	0.177
377.98	0.290
378.20	0.157
378.42	0.198
378.63	0.243
378.85	-0.000
379.07	0.163
379.28	0.793
379.50	0.407
379.71	0.191
379.93	0.130
380.15	0.170
380.36	0.291
380.58	0.198
380.80	0.629
381.01	0.186
381.23	0.146
381.44	0.153
381.66	0.169
381.88	0.184
382.09	-0.085
382.31	0.133
382.53	0.151
382.74	0.919
382.96	0.209
383.17	0.172
383.39	0.220
383.61	0.304
383.82	0.214
384.04	0.268
384.25	0.361
384.47	0.348
384.69	0.351
384.90	0.294
385.12	0.602
385.33	0.367
385.55	0.272
385.77	0.440
385.98	0.199
386.20	0.275
386.41	0.232
386.63	0.237
386.85	0.203
387.06	0.240
387.28	0.371
387.49	0.277
387.71	0.196
387.93	0.173
388.14	0.558
388.36	0.231
388.57	0.219
388.79	0.247
389.01	-0.000
389.22	0.333
389.44	0.280
389.65	0.233
389.87	0.213
390.08	0.265
390.30	0.195
390.52	0.401
390.73	0.410
390.95	0.264
391.16	0.250
391.38	-0.000
391.59	0.296
391.81	0.245
392.03	0.224
392.24	0.260
392.46	0.221
392.67	0.207
392.89	0.271
393.10	0.414
393.32	0.283
393.53	0.315
393.75	0.188
393.97	0.217
394.18	0.317
394.40	0.283
394.61	0.304
394.83	0.267
395.04	0.312
395.26	0.203
395.47	0.304
395.69	0.254
395.91	0.280
396.12	0.333
396.34	0.311
396.55	0.195
396.77	0.300
396.98	1.492
397.20	0.382
397.41	0.447
397.63	0.309
397.84	0.279
398.06	0.266
398.27	0.271
398.49	0.336
398.71	0.261
398.92	0.324
399.14	0.414
399.35	0.488
399.57	0.454
399.78	0.292
400.00	0.300
400.21	0.383
400.43	0.315
400.64	0.332
400.86	0.761
401.07	0.377
401.29	0.322
401.50	0.355
401.72	0.530
401.93	0.324
402.15	0.399
402.36	0.357
402.58	0.294
402.79	0.316
403.01	0.530
403.22	0.423
403.44	0.294
403.65	0.461
403.87	0.503
404.08	0.393
404.30	0.661
404.51	0.354
404.73	0.438
404.94	0.365
405.16	0.389
405.37	0.296
405.59	0.539
405.80	0.325
406.02	0.413
406.23	0.400
406.45	0.458
406.66	0.485
406.88	0.316
407.09	0.472
407.31	0.377
407.52	0.460
407.74	0.381
407.95	0.467
408.17	0.426
408.38	0.442
408.60	0.287
408.81	0.476
409.03	0.360
409.24	0.356
409.45	0.421
409.67	0.410
409.88	0.366
410.10	0.459
410.31	0.372
410.53	0.361
410.74	0.515
410.96	0.511
411.17	0.533
411.39	0.408
411.60	0.368
411.82	0.426
412.03	0.410
412.24	0.393
412.46	0.595
412.67	0.480
412.89	0.481
413.10	0.474
413.32	0.439
413.53	0.518
413.75	0.537
413.96	0.405
414.17	0.554
414.39	0.550
414.60	0.453
414.82	0.593
415.03	0.468
415.25	0.511
415.46	0.349
415.68	0.490
415.89	0.911
416.10	0.712
416.32	0.384
416.53	0.459
416.75	0.446
416.96	0.538
417.18	0.470
417.39	0.433
417.60	0.440
417.82	0.666
418.03	0.575
418.25	0.487
418.46	0.511
418.67	0.463
418.89	0.497
419.10	0.518
419.32	0.716
419.53	0.630
419.75	0.533
419.96	0.459
420.17	0.555
420.39	0.530
420.60	0.546
420.82	0.686
421.03	0.554
421.24	0.454
421.46	0.500
421.67	0.544
421.89	0.468
422.10	0.507
422.31	0.504
422.53	0.758
422.74	0.527
422.96	0.416
423.17	0.460
423.38	0.550
423.60	0.467
423.81	0.581
424.03	0.500
424.24	0.564
424.45	0.570
424.67	0.571
424.88	0.504
425.09	0.562
425.31	0.523
425.52	0.551
425.74	0.639
425.95	0.710
426.16	0.540
426.38	0.635
426.59	0.570
426.80	0.654
427.02	0.676
427.23	0.532
427.45	0.695
427.66	0.678
427.87	0.519
428.09	0.549
428.30	0.604
428.51	0.586
428.73	0.629
428.94	0.564
429.15	0.556
429.37	0.538
429.58	0.556
429.79	0.516
430.01	0.626
430.22	0.624
430.44	0.650
430.65	0.577
430.86	0.618
431.08	0.622
431.29	0.559
431.50	0.662
431.72	0.906
431.93	0.720
432.14	0.535
432.36	0.584
432.57	0.590
432.78	0.610
433.00	0.564
433.21	0.563
433.42	0.708
433.64	0.613
433.85	0.705
434.06	0.570
434.28	0.601
434.49	0.621
434.70	0.635
434.92	0.656
435.13	0.698
435.34	0.714
435.56	0.659
435.77	0.643
435.98	0.848
436.20	0.700
436.41	0.594
436.62	0.579
436.83	0.656
437.05	0.748
437.26	0.644
437.47	0.579
437.69	0.636
437.90	0.586
438.11	0.575
438.33	0.627
438.54	0.644
438.75	0.835
438.97	0.828
439.18	0.614
439.39	0.641
439.60	0.703
439.82	0.649
440.03	0.596
440.24	0.897
440.46	0.659
440.67	0.631
440.88	0.680
441.10	0.633
441.31	0.630
441.52	0.686
441.73	0.782
441.95	0.686
442.16	0.634
442.37	1.038
442.58	0.625
442.80	0.617
443.01	0.822
443.22	0.737
443.44	0.623
443.65	0.744
443.86	0.739
444.07	0.793
444.29	0.680
444.50	0.892
444.71	0.661
444.92	0.609
445.14	0.785
445.35	0.842
445.56	0.657
445.78	0.772
445.99	0.767
446.20	0.658
446.41	0.746
446.63	0.735
446.84	0.693
447.05	0.692
447.26	0.838
447.48	0.701
447.69	0.655
447.90	0.739
448.11	0.657
448.33	0.689
448.54	0.708
448.75	0.736
448.96	0.758
449.18	0.795
449.39	0.707
449.60	0.692
449.81	0.832
450.03	0.720
450.24	0.784
450.45	0.734
450.66	0.714
450.87	0.742
451.09	0.695
451.30	0.668
451.51	0.747
451.72	0.759
451.94	0.783
452.15	0.867
452.36	0.716
452.57	0.737
452.78	0.742
453.00	0.774
453.21	0.731
453.42	0.702
453.63	0.814
453.85	0.770
454.06	0.761
454.27	0.904
454.48	0.797
454.69	0.725
454.91	0.809
455.12	0.701
455.33	0.790
455.54	0.802
455.75	0.769
455.97	0.790
456.18	0.779
456.39	0.790
456.60	0.818
456.81	0.750
457.03	0.753
457.24	0.748
457.45	0.838
457.66	0.781
457.87	0.737
458.09	0.760
458.30	0.678
458.51	0.811
458.72	0.838
458.93	0.849
459.15	0.741
459.36	0.814
459.57	0.840
459.78	0.892
459.99	0.794
460.20	0.755
460.42	0.844
460.63	0.793
460.84	0.775
461.05	0.796
461.26	0.859
461.47	0.771
461.69	0.824
461.90	0.864
462.11	0.816
462.32	0.876
462.53	0.815
462.74	0.925
462.96	0.792
463.17	0.779
463.38	0.824
463.59	0.947
463.80	0.782
464.01	0.809
464.23	0.908
464.44	0.862
464.65	0.873
464.86	0.891
465.07	0.894
465.28	0.856
465.49	0.876
465.71	0.820
465.92	0.859
466.13	0.905
466.34	0.831
466.55	0.882
466.76	0.849
466.97	0.880
467.19	0.871
467.40	0.910
467.61	0.911
467.82	0.830
468.03	0.814
468.24	0.886
468.45	0.922
468.66	0.904
468.88	0.906
469.09	0.902
469.30	0.942
469.51	0.865
469.72	0.907
469.93	0.875
470.14	0.848
470.35	0.942
470.57	0.895
470.78	0.834
470.99	0.973
471.20	0.915
471.41	0.872
471.62	0.933
471.83	0.901
472.04	0.934
472.25	0.986
472.47	0.892
472.68	0.899
472.89	0.901
473.10	0.944
473.31	0.887
473.52	0.952
473.73	0.974
473.94	0.890
474.15	0.917
474.36	0.922
474.57	0.949
474.79	0.926
475.00	0.926
475.21	0.912
475.42	1.019
475.63	0.913
475.84	0.948
476.05	0.956
476.26	0.919
476.47	0.957
476.68	1.007
476.89	0.927
477.10	0.975
477.32	0.962
477.53	1.025
477.74	0.932
477.95	0.975
478.16	0.922
478.37	0.970
478.58	0.979
478.79	0.993
479.00	0.995
479.21	0.948
479.42	0.999
479.63	1.004
479.84	0.957
480.05	0.959
480.26	0.992
480.47	1.010
480.69	1.009
480.90	0.966
481.11	0.962
481.32	1.028
481.53	0.962
481.74	1.020
481.95	0.982
482.16	1.004
482.37	1.012
482.58	0.974
482.79	0.991
483.00	1.023
483.21	0.963
483.42	0.937
483.63	1.022
483.84	1.049
484.05	1.031
484.26	1.001
484.47	1.000
484.68	0.958
484.89	0.968
485.10	1.025
485.31	0.999
485.52	1.005
485.73	1.003
485.94	1.047
486.15	0.993
486.37	1.015
486.58	0.972
486.79	0.988
487.00	1.045
487.21	1.031
487.42	1.022
487.63	1.030
487.84	1.051
488.05	1.047
488.26	1.001
488.47	1.007
488.68	1.036
488.89	1.012
489.10	1.005
489.31	1.015
489.52	1.054
489.73	1.019
489.94	1.056
490.15	1.009
490.36	1.055
490.57	1.005
490.78	0.986
490.99	1.027
491.20	1.114
491.41	1.064
491.62	1.002
491.83	1.033
492.04	1.030
492.25	1.039
492.45	1.041
492.66	1.067
492.87	1.051
493.08	1.042
493.29	1.024
493.50	1.014
493.71	1.020
493.92	1.014
494.13	1.031
494.34	1.053
494.55	1.061
494.76	1.093
494.97	1.085
495.18	1.047
495.39	1.062
495.60	1.010
495.81	1.009
496.02	1.036
496.23	1.030
496.44	1.065
496.65	1.055
496.86	1.060
497.07	1.086
497.28	1.080
497.49	1.026
497.70	1.025
497.91	1.047
498.12	1.027
498.32	1.072
498.53	1.052
498.74	1.042
498.95	1.071
499.16	1.020
499.37	1.029
499.58	1.040
499.79	1.072
500.00	1.066
500.21	1.099
500.42	1.036
500.63	1.037
500.84	1.061
501.05	1.037
501.26	1.064
501.46	1.109
501.67	1.063
501.88	1.066
502.09	1.039
502.30	1.047
502.51	1.099
502.72	1.053
502.93	1.069
503.14	1.091
503.35	1.059
503.56	1.054
503.77	1.088
503.97	1.064
504.18	1.061
504.39	1.100
504.60	1.065
504.81	1.098
505.02	1.085
505.23	1.086
505.44	1.069
505.65	1.080
505.86	1.057
506.07	1.133
506.27	1.086
506.48	1.090
506.69	1.072
506.90	1.095
507.11	1.088
507.32	1.064
507.53	1.071
507.74	1.058
507.95	1.068
508.15	1.076
508.36	1.081
508.57	1.092
508.78	1.076
508.99	1.077
509.20	1.049
509.41	1.077
509.62	1.062
509.82	1.059
510.03	1.074
510.24	1.076
510.45	1.102
510.66	1.091
510.87	1.087
511.08	1.043
511.29	1.086
511.49	1.063
511.70	1.116
511.91	1.041
512.12	1.039
512.33	1.073
512.54	1.093
512.75	1.071
512.95	1.100
513.16	1.089
513.37	1.063
513.58	1.105
513.79	1.065
514.00	1.069
514.20	1.090
514.41	1.078
514.62	1.042
514.83	1.086
515.04	1.078
515.25	1.054
515.46	1.067
515.66	1.070
515.87	1.086
516.08	1.050
516.29	1.078
516.50	1.057
516.71	1.050
516.91	1.061
517.12	1.079
517.33	1.061
517.54	1.050
517.75	1.055
517.95	1.068
518.16	1.080
518.37	1.045
518.58	1.051
518.79	1.023
519.00	1.058
519.20	1.071
519.41	1.041
519.62	1.063
519.83	1.071
520.04	1.031
520.24	1.030
520.45	1.039
520.66	1.068
520.87	1.027
521.08	1.025
521.28	1.028
521.49	1.044
521.70	1.012
521.91	1.029
522.12	1.011
522.32	1.036
522.53	1.015
522.74	1.003
522.95	1.012
523.16	1.014
523.36	1.024
523.57	1.004
523.78	0.998
523.99	1.003
524.20	0.995
524.40	1.008
524.61	1.014
524.82	0.985
525.03	0.991
525.23	0.992
525.44	0.973
525.65	0.974
525.86	0.999
526.06	0.969
526.27	0.970
526.48	0.979
526.69	0.958
526.90	0.963
527.10	1.001
527.31	0.952
527.52	0.944
527.73	0.938
527.93	0.947
528.14	0.952
528.35	0.943
528.56	0.943
528.76	0.936
528.97	0.927
529.18	0.918
529.39	0.918
529.59	0.921
529.80	0.955
530.01	0.926
530.22	0.925
530.42	0.891
530.63	0.909
530.84	0.883
531.05	0.897
531.25	0.901
531.46	0.893
531.67	0.870
531.88	0.891
532.08	0.884
532.29	0.879
532.50	0.871
532.70	0.863
532.91	0.854
533.12	0.858
533.33	0.885
533.53	0.854
533.74	0.852
533.95	0.858
534.15	0.845
534.36	0.845
534.57	0.825
534.78	0.827
534.98	0.838
535.19	0.809
535.40	0.811
535.60	0.830
535.81	0.808
536.02	0.812
536.23	0.804
536.43	0.806
536.64	0.792
536.85	0.801
537.05	0.810
537.26	0.787
537.47	0.788
537.67	0.775
537.88	0.770
538.09	0.778
538.30	0.767
538.50	0.758
538.71	0.769
538.92	0.756
539.12	0.752
539.33	0.747
539.54	0.747
539.74	0.751
539.95	0.742
540.16	0.739
540.36	0.729
540.57	0.728
540.78	0.719
540.98	0.718
541.19	0.715
541.40	0.703
541.60	0.713
541.81	0.707
542.02	0.707
542.22	0.696
542.43	0.690
542.64	0.685
542.84	0.685
543.05	0.677
543.26	0.676
543.46	0.680
543.67	0.678
543.88	0.673
544.08	0.662
544.29	0.655
544.50	0.656
544.70	0.657
544.91	0.648
545.12	0.649
545.32	0.644
545.53	0.648
545.74	0.636
545.94	0.633
546.15	0.630
546.35	0.627
546.56	0.625
546.77	0.622
546.97	0.619
547.18	0.610
547.39	0.610
547.59	0.607
547.80	0.603
548.01	0.608
548.21	0.603
548.42	0.595
548.62	0.594
548.83	0.591
549.04	0.586
549.24	0.579
549.45	0.579
549.65	0.575
549.86	0.570
550.07	0.569
550.27	0.566
550.48	0.574
550.69	0.559
550.89	0.559
551.10	0.554
551.30	0.552
551.51	0.551
551.72	0.541
551.92	0.543
552.13	0.543
552.33	0.543
552.54	0.537
552.75	0.530
552.95	0.532
553.16	0.527
553.36	0.525
553.57	0.524
553.78	0.521
553.98	0.521
554.19	0.512
554.39	0.509
554.60	0.513
554.80	0.511
555.01	0.504
555.22	0.506
555.42	0.503
555.63	0.495
555.83	0.498
556.04	0.491
556.25	0.494
556.45	0.486
556.66	0.483
556.86	0.486
557.07	0.484
557.27	0.482
557.48	0.476
557.68	0.473
557.89	0.474
558.10	0.471
558.30	0.468
558.51	0.465
558.71	0.462
558.92	0.458
559.12	0.460
559.33	0.463
559.54	0.458
559.74	0.453
559.95	0.451
560.15	0.450
560.36	0.448
560.56	0.443
560.77	0.443
560.97	0.443
561.18	0.438
561.38	0.436
561.59	0.440
561.79	0.435
562.00	0.433
562.21	0.430
562.41	0.429
562.62	0.427
562.82	0.425
563.03	0.421
563.23	0.421
563.44	0.420
563.64	0.417
563.85	0.418
564.05	0.411
564.26	0.410
564.46	0.409
564.67	0.409
564.87	0.405
565.08	0.401
565.28	0.401
565.49	0.402
565.69	0.399
565.90	0.396
566.10	0.398
566.31	0.392
566.51	0.394
566.72	0.395
566.92	0.389
567.13	0.388
567.33	0.387
567.54	0.385
567.74	0.384
567.95	0.380
568.15	0.381
568.36	0.380
568.56	0.378
568.77	0.372
568.97	0.370
569.18	0.370
569.38	0.369
569.59	0.370
569.79	0.368
570.00	0.365
570.20	0.364
570.41	0.362
570.61	0.360
570.82	0.362
571.02	0.358
571.23	0.359
571.43	0.355
571.64	0.354
571.84	0.353
572.05	0.351
572.25	0.350
572.45	0.348
572.66	0.345
572.86	0.344
573.07	0.342
573.27	0.342
573.48	0.341
573.68	0.337
573.89	0.337
574.09	0.338
574.30	0.336
574.50	0.334
574.70	0.336
574.91	0.333
575.11	0.332
575.32	0.332
575.52	0.328
575.73	0.328
575.93	0.328
576.14	0.326
576.34	0.324
576.54	0.322
576.75	0.321
576.95	0.319
577.16	0.317
577.36	0.316
577.57	0.316
577.77	0.314
577.97	0.311
578.18	0.313
578.38	0.310
578.59	0.308
578.79	0.307
579.00	0.308
579.20	0.306
579.40	0.306
579.61	0.305
579.81	0.304
580.02	0.301
580.22	0.301
580.42	0.300
580.63	0.300
580.83	0.298
581.04	0.296
581.24	0.295
581.45	0.293
581.65	0.293
581.85	0.291
582.06	0.289
582.26	0.289
582.47	0.287
582.67	0.287
582.87	0.286
583.08	0.283
583.28	0.283
583.48	0.282
583.69	0.279
583.89	0.279
584.10	0.280
584.30	0.278
584.50	0.277
584.71	0.277
584.91	0.276
585.12	0.274
585.32	0.275
585.52	0.273
585.73	0.272
585.93	0.272
586.13	0.271
586.34	0.270
586.54	0.269
586.75	0.267
586.95	0.266
587.15	0.266
587.36	0.265
587.56	0.264
587.76	0.262
587.97	0.261
588.17	0.260
588.37	0.260
588.58	0.259
588.78	0.256
588.98	0.257
589.19	0.255
589.39	0.253
589.60	0.255
589.80	0.252
590.00	0.252
590.21	0.252
590.41	0.250
590.61	0.249
590.82	0.249
591.02	0.249
591.22	0.247
591.43	0.247
591.63	0.246
591.83	0.246
592.04	0.244
592.24	0.245
592.44	0.242
592.65	0.241
592.85	0.242
593.05	0.242
593.26	0.240
593.46	0.240
593.66	0.240
593.86	0.239
594.07	0.237
594.27	0.237
594.47	0.236
594.68	0.235
594.88	0.235
595.08	0.234
595.29	0.234
595.49	0.232
595.69	0.231
595.90	0.230
596.10	0.230
596.30	0.229
596.50	0.228
596.71	0.228
596.91	0.228
597.11	0.227
597.32	0.227
597.52	0.226
597.72	0.225
597.93	0.225
598.13	0.224
598.33	0.224
598.53	0.224
598.74	0.223
598.94	0.222
599.14	0.222
599.35	0.221
599.55	0.221
599.75	0.220
599.95	0.219
600.16	0.219
600.36	0.217
600.56	0.217
600.76	0.216
600.97	0.214
601.17	0.214
601.37	0.214
601.58	0.213
601.78	0.213
601.98	0.212
602.18	0.211
602.39	0.211
602.59	0.211
602.79	0.210
602.99	0.210
603.20	0.209
603.40	0.209
603.60	0.209
603.80	0.208
604.01	0.208
604.21	0.208
604.41	0.207
604.61	0.206
604.82	0.206
605.02	0.206
605.22	0.205
605.42	0.205
605.62	0.204
605.83	0.203
606.03	0.202
606.23	0.202
606.43	0.201
606.64	0.201
606.84	0.200
607.04	0.200
607.24	0.200
607.45	0.200
607.65	0.198
607.85	0.199
608.05	0.197
608.25	0.197
608.46	0.197
608.66	0.197
608.86	0.196
609.06	0.195
609.26	0.194
609.47	0.194
609.67	0.193
609.87	0.194
610.07	0.193
610.28	0.192
610.48	0.192
610.68	0.192
610.88	0.191
611.08	0.191
611.29	0.190
611.49	0.190
611.69	0.191
611.89	0.189
612.09	0.189
612.29	0.188
612.50	0.188
612.70	0.188
612.90	0.186
613.10	0.185
613.30	0.185
613.51	0.185
613.71	0.184
613.91	0.188
614.11	0.184
614.31	0.183
614.51	0.183
614.72	0.182
614.92	0.182
615.12	0.182
615.32	0.183
615.52	0.182
615.72	0.182
615.93	0.182
616.13	0.181
616.33	0.181
616.53	0.181
616.73	0.181
616.93	0.180
617.14	0.181
617.34	0.181
617.54	0.181
617.74	0.180
617.94	0.179
618.14	0.179
618.34	0.178
618.55	0.178
618.75	0.178
618.95	0.177
619.15	0.177
619.35	0.176
619.55	0.176
619.75	0.176
619.96	0.175
620.16	0.176
620.36	0.176
620.56	0.175
620.76	0.175
620.96	0.175
621.16	0.175
621.36	0.175
621.57	0.175
621.77	0.174
621.97	0.173
622.17	0.173
622.37	0.173
622.57	0.173
622.77	0.172
622.97	0.171
623.18	0.171
623.38	0.171
623.58	0.170
623.78	0.170
623.98	0.170
624.18	0.169
624.38	0.169
624.58	0.168
624.78	0.169
624.98	0.169
625.19	0.168
625.39	0.168
625.59	0.168
625.79	0.168
625.99	0.168
626.19	0.168
626.39	0.167
626.59	0.168
626.79	0.168
626.99	0.167
627.19	0.167
627.40	0.167
627.60	0.167
627.80	0.166
628.00	0.166
628.20	0.165
628.40	0.165
628.60	0.165
628.80	0.163
629.00	0.163
629.20	0.163
629.40	0.163
629.60	0.161
629.80	0.162
630.00	0.162
630.20	0.162
630.41	0.161
630.61	0.161
630.81	0.160
631.01	0.161
631.21	0.160
631.41	0.160
631.61	0.161
631.81	0.160
632.01	0.160
632.21	0.160
632.41	0.159
632.61	0.159
632.81	0.158
633.01	0.159
633.21	0.158
633.41	0.159
633.61	0.158
633.81	0.157
634.01	0.156
634.21	0.156
634.41	0.156
634.61	0.156
634.81	0.156
635.01	0.155
635.22	0.156
