SpectraSuite Data File
++++++++++++++++++++++++++++++++++++
Date: Mon May 20 12:12:22 CDT 2013
User: Students
Dark Spectrum Present: Yes
Reference Spectrum Present: Yes
Number of Sampled Component Spectra: 1
Spectrometers: USB4H00887
Integration Time (usec): 60000 (USB4H00887)
Spectra Averaged: 5 (USB4H00887)
Boxcar Smoothing: 5 (USB4H00887)
Correct for Electrical Dark: No (USB4H00887)
Strobe/Lamp Enabled: No (USB4H00887)
Correct for Detector Non-linearity: No (USB4H00887)
Correct for Stray Light: No (USB4H00887)
Number of Pixels in Processed Spectrum: 3648
>>>>>Begin Processed Spectral Data<<<<<
345.83	-0.098
346.05	-0.098
346.26	-0.098
346.48	-0.000
346.70	0.087
346.92	0.129
347.14	0.083
347.35	0.070
347.57	0.298
347.79	-0.212
348.01	-0.143
348.23	-0.264
348.44	-0.000
348.66	0.199
348.88	-0.385
349.10	-0.124
349.32	0.033
349.53	0.025
349.75	0.032
349.97	-0.001
350.19	-0.002
350.41	-0.038
350.62	-0.032
350.84	0.002
351.06	0.004
351.28	0.037
351.50	0.092
351.71	0.098
351.93	0.020
352.15	0.022
352.37	0.146
352.58	0.054
352.80	0.063
353.02	0.099
353.24	0.120
353.46	0.792
353.67	-0.135
353.89	0.035
354.11	0.041
354.33	0.052
354.54	0.057
354.76	0.092
354.98	0.145
355.20	0.145
355.41	0.077
355.63	0.137
355.85	0.073
356.07	-0.000
356.28	0.090
356.50	0.152
356.72	0.067
356.94	0.192
357.15	0.275
357.37	-0.000
357.59	0.105
357.81	0.037
358.02	0.074
358.24	0.067
358.46	0.156
358.68	0.147
358.89	0.076
359.11	-0.000
359.33	0.058
359.55	-0.454
359.76	0.107
359.98	0.128
360.20	0.136
360.42	0.133
360.63	0.136
360.85	0.069
361.07	0.421
361.29	0.065
361.50	0.213
361.72	0.096
361.94	0.371
362.15	0.154
362.37	0.087
362.59	0.110
362.81	0.157
363.02	0.298
363.24	0.478
363.46	0.252
363.68	0.359
363.89	0.196
364.11	0.307
364.33	0.362
364.54	0.218
364.76	0.263
364.98	0.230
365.20	0.278
365.41	0.155
365.63	0.194
365.85	0.134
366.06	0.344
366.28	0.346
366.50	0.204
366.71	0.086
366.93	0.125
367.15	0.109
367.37	0.126
367.58	0.142
367.80	0.183
368.02	0.549
368.23	0.140
368.45	0.171
368.67	0.150
368.88	0.136
369.10	-0.000
369.32	0.133
369.53	0.088
369.75	0.131
369.97	0.404
370.19	0.219
370.40	0.103
370.62	0.335
370.84	0.115
371.05	0.699
371.27	0.153
371.49	0.185
371.70	0.217
371.92	0.311
372.14	0.113
372.35	0.120
372.57	0.129
372.79	0.301
373.00	0.081
373.22	0.118
373.44	0.108
373.65	0.104
373.87	0.168
374.09	0.753
374.30	0.157
374.52	0.198
374.74	0.147
374.95	0.773
375.17	0.164
375.39	-0.000
375.60	0.188
375.82	0.427
376.04	0.163
376.25	0.172
376.47	0.106
376.68	0.288
376.90	0.148
377.12	0.307
377.33	0.170
377.55	0.390
377.77	0.212
377.98	0.330
378.20	0.166
378.42	0.190
378.63	0.250
378.85	-0.000
379.07	0.170
379.28	0.931
379.50	0.466
379.71	0.220
379.93	0.157
380.15	0.214
380.36	0.314
380.58	0.216
380.80	0.818
381.01	0.191
381.23	0.147
381.44	0.143
381.66	0.151
381.88	0.166
382.09	-0.085
382.31	0.122
382.53	0.127
382.74	0.767
382.96	0.185
383.17	0.143
383.39	0.185
383.61	0.263
383.82	0.185
384.04	0.226
384.25	0.304
384.47	0.289
384.69	0.275
384.90	0.266
385.12	0.553
385.33	0.367
385.55	0.276
385.77	0.424
385.98	0.203
386.20	0.288
386.41	0.248
386.63	0.271
386.85	0.219
387.06	0.280
387.28	0.424
387.49	0.272
387.71	0.196
387.93	0.172
388.14	0.593
388.36	0.223
388.57	0.192
388.79	0.217
389.01	-0.000
389.22	0.281
389.44	0.242
389.65	0.208
389.87	0.202
390.08	0.235
390.30	0.189
390.52	0.372
390.73	0.400
390.95	0.282
391.16	0.272
391.38	-0.000
391.59	0.316
391.81	0.267
392.03	0.248
392.24	0.273
392.46	0.226
392.67	0.206
392.89	0.271
393.10	0.393
393.32	0.288
393.53	0.329
393.75	0.194
393.97	0.221
394.18	0.304
394.40	0.262
394.61	0.288
394.83	0.250
395.04	0.300
395.26	0.207
395.47	0.324
395.69	0.248
395.91	0.263
396.12	0.328
396.34	0.344
396.55	0.225
396.77	0.336
396.98	-0.000
397.20	0.427
397.41	0.478
397.63	0.329
397.84	0.291
398.06	0.278
398.27	0.288
398.49	0.341
398.71	0.237
398.92	0.288
399.14	0.386
399.35	0.475
399.57	0.450
399.78	0.292
400.00	0.284
400.21	0.360
400.43	0.289
400.64	0.300
400.86	0.665
401.07	0.366
401.29	0.315
401.50	0.334
401.72	0.495
401.93	0.316
402.15	0.392
402.36	0.344
402.58	0.281
402.79	0.314
403.01	0.545
403.22	0.417
403.44	0.285
403.65	0.473
403.87	0.508
404.08	0.397
404.30	0.678
404.51	0.362
404.73	0.448
404.94	0.389
405.16	0.403
405.37	0.311
405.59	0.584
405.80	0.342
406.02	0.420
406.23	0.422
406.45	0.464
406.66	0.492
406.88	0.310
407.09	0.477
407.31	0.381
407.52	0.462
407.74	0.386
407.95	0.465
408.17	0.433
408.38	0.448
408.60	0.294
408.81	0.510
409.03	0.375
409.24	0.375
409.45	0.440
409.67	0.409
409.88	0.381
410.10	0.471
410.31	0.389
410.53	0.363
410.74	0.514
410.96	0.496
411.17	0.506
411.39	0.390
411.60	0.366
411.82	0.427
412.03	0.410
412.24	0.389
412.46	0.565
412.67	0.458
412.89	0.465
413.10	0.461
413.32	0.425
413.53	0.502
413.75	0.523
413.96	0.393
414.17	0.523
414.39	0.535
414.60	0.431
414.82	0.557
415.03	0.425
415.25	0.482
415.46	0.331
415.68	0.473
415.89	0.874
416.10	0.685
416.32	0.377
416.53	0.447
416.75	0.423
416.96	0.517
417.18	0.451
417.39	0.437
417.60	0.434
417.82	0.656
418.03	0.551
418.25	0.453
418.46	0.468
418.67	0.426
418.89	0.463
419.10	0.482
419.32	0.659
419.53	0.608
419.75	0.512
419.96	0.447
420.17	0.549
420.39	0.518
420.60	0.550
420.82	0.696
421.03	0.547
421.24	0.458
421.46	0.507
421.67	0.543
421.89	0.465
422.10	0.505
422.31	0.497
422.53	0.714
422.74	0.512
422.96	0.399
423.17	0.445
423.38	0.534
423.60	0.447
423.81	0.553
424.03	0.480
424.24	0.530
424.45	0.520
424.67	0.517
424.88	0.458
425.09	0.511
425.31	0.481
425.52	0.511
425.74	0.581
425.95	0.638
426.16	0.494
426.38	0.570
426.59	0.527
426.80	0.610
427.02	0.641
427.23	0.499
427.45	0.635
427.66	0.609
427.87	0.472
428.09	0.499
428.30	0.556
428.51	0.550
428.73	0.608
428.94	0.540
429.15	0.526
429.37	0.505
429.58	0.535
429.79	0.497
430.01	0.602
430.22	0.593
430.44	0.617
430.65	0.550
430.86	0.597
431.08	0.577
431.29	0.528
431.50	0.619
431.72	0.818
431.93	0.658
432.14	0.510
432.36	0.554
432.57	0.573
432.78	0.586
433.00	0.543
433.21	0.531
433.42	0.661
433.64	0.572
433.85	0.653
434.06	0.541
434.28	0.576
434.49	0.584
434.70	0.604
434.92	0.614
435.13	0.670
435.34	0.675
435.56	0.638
435.77	0.632
435.98	0.817
436.20	0.679
436.41	0.575
436.62	0.562
436.83	0.641
437.05	0.714
437.26	0.633
437.47	0.551
437.69	0.604
437.90	0.550
438.11	0.547
438.33	0.598
438.54	0.613
438.75	0.790
438.97	0.782
439.18	0.585
439.39	0.616
439.60	0.667
439.82	0.627
440.03	0.580
440.24	0.860
440.46	0.645
440.67	0.622
440.88	0.670
441.10	0.621
441.31	0.616
441.52	0.666
441.73	0.745
441.95	0.652
442.16	0.611
442.37	0.968
442.58	0.596
442.80	0.577
443.01	0.753
443.22	0.693
443.44	0.589
443.65	0.696
443.86	0.695
444.07	0.746
444.29	0.645
444.50	0.806
444.71	0.610
444.92	0.569
445.14	0.721
445.35	0.759
445.56	0.594
445.78	0.693
445.99	0.690
446.20	0.600
446.41	0.678
446.63	0.681
446.84	0.646
447.05	0.649
447.26	0.776
447.48	0.665
447.69	0.627
447.90	0.719
448.11	0.640
448.33	0.668
448.54	0.687
448.75	0.710
448.96	0.720
449.18	0.760
449.39	0.679
449.60	0.669
449.81	0.801
450.03	0.697
450.24	0.753
450.45	0.709
450.66	0.692
450.87	0.722
451.09	0.679
451.30	0.658
451.51	0.727
451.72	0.738
451.94	0.755
452.15	0.824
452.36	0.685
452.57	0.701
452.78	0.704
453.00	0.735
453.21	0.697
453.42	0.667
453.63	0.764
453.85	0.733
454.06	0.726
454.27	0.853
454.48	0.762
454.69	0.690
454.91	0.764
455.12	0.667
455.33	0.747
455.54	0.756
455.75	0.732
455.97	0.757
456.18	0.755
456.39	0.764
456.60	0.788
456.81	0.722
457.03	0.735
457.24	0.731
457.45	0.824
457.66	0.767
457.87	0.731
458.09	0.752
458.30	0.662
458.51	0.782
458.72	0.805
458.93	0.812
459.15	0.717
459.36	0.779
459.57	0.804
459.78	0.848
459.99	0.757
460.20	0.717
460.42	0.792
460.63	0.751
460.84	0.729
461.05	0.749
461.26	0.807
461.47	0.727
461.69	0.780
461.90	0.813
462.11	0.771
462.32	0.827
462.53	0.767
462.74	0.869
462.96	0.751
463.17	0.742
463.38	0.785
463.59	0.896
463.80	0.747
464.01	0.772
464.23	0.856
464.44	0.811
464.65	0.817
464.86	0.840
465.07	0.838
465.28	0.804
465.49	0.827
465.71	0.779
465.92	0.817
466.13	0.863
466.34	0.794
466.55	0.850
466.76	0.817
466.97	0.839
467.19	0.829
467.40	0.866
467.61	0.870
467.82	0.788
468.03	0.773
468.24	0.834
468.45	0.865
468.66	0.853
468.88	0.860
469.09	0.863
469.30	0.907
469.51	0.836
469.72	0.882
469.93	0.850
470.14	0.832
470.35	0.922
470.57	0.877
470.78	0.821
470.99	0.952
471.20	0.883
471.41	0.845
471.62	0.898
471.83	0.868
472.04	0.893
472.25	0.940
472.47	0.858
472.68	0.866
472.89	0.871
473.10	0.909
473.31	0.860
473.52	0.928
473.73	0.949
473.94	0.870
474.15	0.897
474.36	0.897
474.57	0.922
474.79	0.894
475.00	0.890
475.21	0.877
475.42	0.969
475.63	0.873
475.84	0.899
476.05	0.901
476.26	0.873
476.47	0.906
476.68	0.950
476.89	0.881
477.10	0.927
477.32	0.915
477.53	0.966
477.74	0.884
477.95	0.922
478.16	0.875
478.37	0.917
478.58	0.919
478.79	0.932
479.00	0.936
479.21	0.892
479.42	0.932
479.63	0.938
479.84	0.903
480.05	0.901
480.26	0.929
480.47	0.946
480.69	0.946
480.90	0.916
481.11	0.912
481.32	0.970
481.53	0.918
481.74	0.970
481.95	0.938
482.16	0.953
482.37	0.967
482.58	0.933
482.79	0.954
483.00	0.986
483.21	0.926
483.42	0.903
483.63	0.979
483.84	1.003
484.05	0.988
484.26	0.961
484.47	0.955
484.68	0.917
484.89	0.923
485.10	0.967
485.31	0.943
485.52	0.953
485.73	0.953
485.94	0.994
486.15	0.943
486.37	0.961
486.58	0.925
486.79	0.939
487.00	0.989
487.21	0.980
487.42	0.973
487.63	0.980
487.84	1.000
488.05	0.991
488.26	0.949
488.47	0.954
488.68	0.983
488.89	0.960
489.10	0.955
489.31	0.962
489.52	0.996
489.73	0.964
489.94	0.998
490.15	0.954
490.36	0.995
490.57	0.948
490.78	0.933
490.99	0.969
491.20	1.042
491.41	1.001
491.62	0.947
491.83	0.972
492.04	0.970
492.25	0.977
492.45	0.977
492.66	1.002
492.87	0.992
493.08	0.980
493.29	0.963
493.50	0.954
493.71	0.961
493.92	0.960
494.13	0.976
494.34	0.994
494.55	1.001
494.76	1.030
494.97	1.018
495.18	0.985
495.39	0.999
495.60	0.954
495.81	0.958
496.02	0.976
496.23	0.967
496.44	0.996
496.65	0.989
496.86	0.994
497.07	1.021
497.28	1.018
497.49	0.969
497.70	0.972
497.91	0.990
498.12	0.972
498.32	1.015
498.53	1.002
498.74	0.993
498.95	1.017
499.16	0.975
499.37	0.978
499.58	0.987
499.79	1.016
500.00	1.012
500.21	1.041
500.42	0.986
500.63	0.987
500.84	1.007
501.05	0.986
501.26	1.009
501.46	1.047
501.67	1.007
501.88	1.011
502.09	0.988
502.30	0.994
502.51	1.041
502.72	0.996
502.93	1.012
503.14	1.032
503.35	1.005
503.56	1.004
503.77	1.033
503.97	1.011
504.18	1.009
504.39	1.041
504.60	1.013
504.81	1.039
505.02	1.029
505.23	1.030
505.44	1.012
505.65	1.018
505.86	1.000
506.07	1.062
506.27	1.022
506.48	1.028
506.69	1.012
506.90	1.032
507.11	1.028
507.32	1.005
507.53	1.012
507.74	1.005
507.95	1.018
508.15	1.021
508.36	1.025
508.57	1.035
508.78	1.020
508.99	1.019
509.20	0.996
509.41	1.019
509.62	1.006
509.82	1.003
510.03	1.014
510.24	1.015
510.45	1.038
510.66	1.030
510.87	1.025
511.08	0.984
511.29	1.025
511.49	1.002
511.70	1.046
511.91	0.986
512.12	0.985
512.33	1.017
512.54	1.031
512.75	1.012
512.95	1.038
513.16	1.034
513.37	1.014
513.58	1.052
513.79	1.019
514.00	1.023
514.20	1.042
514.41	1.030
514.62	0.996
514.83	1.037
515.04	1.030
515.25	1.009
515.46	1.020
515.66	1.023
515.87	1.034
516.08	1.002
516.29	1.026
516.50	1.005
516.71	1.000
516.91	1.010
517.12	1.025
517.33	1.010
517.54	0.997
517.75	0.997
517.95	1.007
518.16	1.017
518.37	0.984
518.58	0.988
518.79	0.964
519.00	0.994
519.20	1.001
519.41	0.977
519.62	0.996
519.83	1.006
520.04	0.973
520.24	0.972
520.45	0.980
520.66	1.003
520.87	0.969
521.08	0.969
521.28	0.973
521.49	0.991
521.70	0.961
521.91	0.974
522.12	0.955
522.32	0.979
522.53	0.960
522.74	0.951
522.95	0.959
523.16	0.961
523.36	0.969
523.57	0.950
523.78	0.944
523.99	0.948
524.20	0.941
524.40	0.954
524.61	0.959
524.82	0.935
525.03	0.938
525.23	0.938
525.44	0.924
525.65	0.922
525.86	0.943
526.06	0.915
526.27	0.916
526.48	0.928
526.69	0.909
526.90	0.913
527.10	0.946
527.31	0.905
527.52	0.899
527.73	0.893
527.93	0.904
528.14	0.909
528.35	0.900
528.56	0.900
528.76	0.892
528.97	0.883
529.18	0.874
529.39	0.875
529.59	0.877
529.80	0.907
530.01	0.880
530.22	0.878
530.42	0.849
530.63	0.865
530.84	0.845
531.05	0.858
531.25	0.860
531.46	0.852
531.67	0.832
531.88	0.849
532.08	0.843
532.29	0.838
532.50	0.831
532.70	0.824
532.91	0.815
533.12	0.818
533.33	0.842
533.53	0.815
533.74	0.815
533.95	0.821
534.15	0.809
534.36	0.810
534.57	0.794
534.78	0.796
534.98	0.807
535.19	0.778
535.40	0.779
535.60	0.796
535.81	0.776
536.02	0.780
536.23	0.771
536.43	0.773
536.64	0.761
536.85	0.767
537.05	0.775
537.26	0.753
537.47	0.755
537.67	0.746
537.88	0.740
538.09	0.747
538.30	0.735
538.50	0.727
538.71	0.737
538.92	0.725
539.12	0.721
539.33	0.715
539.54	0.715
539.74	0.719
539.95	0.710
540.16	0.708
540.36	0.699
540.57	0.699
540.78	0.692
540.98	0.691
541.19	0.688
541.40	0.677
541.60	0.687
541.81	0.682
542.02	0.682
542.22	0.672
542.43	0.668
542.64	0.663
542.84	0.662
543.05	0.653
543.26	0.653
543.46	0.657
543.67	0.656
543.88	0.651
544.08	0.642
544.29	0.637
544.50	0.636
544.70	0.637
544.91	0.628
545.12	0.631
545.32	0.627
545.53	0.631
545.74	0.619
545.94	0.616
546.15	0.613
546.35	0.610
546.56	0.606
546.77	0.604
546.97	0.601
547.18	0.594
547.39	0.594
547.59	0.592
547.80	0.588
548.01	0.592
548.21	0.587
548.42	0.579
548.62	0.578
548.83	0.575
549.04	0.572
549.24	0.565
549.45	0.564
549.65	0.560
549.86	0.556
550.07	0.555
550.27	0.554
550.48	0.562
550.69	0.548
550.89	0.548
551.10	0.544
551.30	0.541
551.51	0.541
551.72	0.531
551.92	0.533
552.13	0.532
552.33	0.534
552.54	0.528
552.75	0.521
552.95	0.522
553.16	0.518
553.36	0.516
553.57	0.514
553.78	0.512
553.98	0.512
554.19	0.503
554.39	0.499
554.60	0.502
554.80	0.501
555.01	0.494
555.22	0.496
555.42	0.493
555.63	0.487
555.83	0.491
556.04	0.485
556.25	0.487
556.45	0.478
556.66	0.477
556.86	0.480
557.07	0.478
557.27	0.477
557.48	0.471
557.68	0.469
557.89	0.470
558.10	0.466
558.30	0.463
558.51	0.461
558.71	0.458
558.92	0.454
559.12	0.455
559.33	0.458
559.54	0.453
559.74	0.449
559.95	0.446
560.15	0.446
560.36	0.444
560.56	0.439
560.77	0.439
560.97	0.439
561.18	0.434
561.38	0.433
561.59	0.435
561.79	0.431
562.00	0.429
562.21	0.426
562.41	0.424
562.62	0.423
562.82	0.421
563.03	0.418
563.23	0.418
563.44	0.417
563.64	0.413
563.85	0.414
564.05	0.408
564.26	0.407
564.46	0.406
564.67	0.407
564.87	0.402
565.08	0.400
565.28	0.399
565.49	0.399
565.69	0.397
565.90	0.394
566.10	0.396
566.31	0.390
566.51	0.391
566.72	0.392
566.92	0.386
567.13	0.385
567.33	0.384
567.54	0.383
567.74	0.382
567.95	0.378
568.15	0.379
568.36	0.379
568.56	0.377
568.77	0.372
568.97	0.371
569.18	0.371
569.38	0.369
569.59	0.370
569.79	0.368
570.00	0.366
570.20	0.365
570.41	0.362
570.61	0.361
570.82	0.362
571.02	0.358
571.23	0.360
571.43	0.356
571.64	0.354
571.84	0.353
572.05	0.351
572.25	0.351
572.45	0.349
572.66	0.346
572.86	0.345
573.07	0.344
573.27	0.344
573.48	0.343
573.68	0.339
573.89	0.339
574.09	0.340
574.30	0.338
574.50	0.336
574.70	0.337
574.91	0.334
575.11	0.334
575.32	0.334
575.52	0.329
575.73	0.329
575.93	0.328
576.14	0.327
576.34	0.324
576.54	0.323
576.75	0.321
576.95	0.320
577.16	0.318
577.36	0.316
577.57	0.316
577.77	0.315
577.97	0.312
578.18	0.314
578.38	0.311
578.59	0.309
578.79	0.308
579.00	0.309
579.20	0.307
579.40	0.307
579.61	0.306
579.81	0.305
580.02	0.303
580.22	0.302
580.42	0.301
580.63	0.301
580.83	0.300
581.04	0.298
581.24	0.298
581.45	0.296
581.65	0.296
581.85	0.295
582.06	0.293
582.26	0.293
582.47	0.292
582.67	0.292
582.87	0.291
583.08	0.288
583.28	0.289
583.48	0.287
583.69	0.284
583.89	0.284
584.10	0.285
584.30	0.283
584.50	0.281
584.71	0.280
584.91	0.279
585.12	0.277
585.32	0.278
585.52	0.275
585.73	0.274
585.93	0.274
586.13	0.273
586.34	0.272
586.54	0.271
586.75	0.270
586.95	0.269
587.15	0.269
587.36	0.268
587.56	0.267
587.76	0.266
587.97	0.265
588.17	0.264
588.37	0.263
588.58	0.263
588.78	0.260
588.98	0.260
589.19	0.259
589.39	0.258
589.60	0.259
589.80	0.257
590.00	0.256
590.21	0.257
590.41	0.255
590.61	0.255
590.82	0.255
591.02	0.254
591.22	0.252
591.43	0.253
591.63	0.251
591.83	0.251
592.04	0.249
592.24	0.249
592.44	0.247
592.65	0.246
592.85	0.246
593.05	0.246
593.26	0.245
593.46	0.244
593.66	0.244
593.86	0.244
594.07	0.242
594.27	0.242
594.47	0.240
594.68	0.239
594.88	0.240
595.08	0.239
595.29	0.239
595.49	0.237
595.69	0.236
595.90	0.235
596.10	0.235
596.30	0.234
596.50	0.233
596.71	0.233
596.91	0.232
597.11	0.231
597.32	0.231
597.52	0.230
597.72	0.229
597.93	0.229
598.13	0.228
598.33	0.228
598.53	0.227
598.74	0.226
598.94	0.226
599.14	0.226
599.35	0.226
599.55	0.226
599.75	0.224
599.95	0.223
600.16	0.224
600.36	0.222
600.56	0.223
600.76	0.222
600.97	0.220
601.17	0.219
601.37	0.220
601.58	0.218
601.78	0.218
601.98	0.217
602.18	0.216
602.39	0.216
602.59	0.216
602.79	0.215
602.99	0.215
603.20	0.213
603.40	0.214
603.60	0.213
603.80	0.213
604.01	0.212
604.21	0.211
604.41	0.211
604.61	0.210
604.82	0.210
605.02	0.210
605.22	0.209
605.42	0.209
605.62	0.208
605.83	0.208
606.03	0.207
606.23	0.208
606.43	0.207
606.64	0.207
606.84	0.206
607.04	0.205
607.24	0.205
607.45	0.204
607.65	0.203
607.85	0.204
608.05	0.202
608.25	0.202
608.46	0.201
608.66	0.202
608.86	0.201
609.06	0.200
609.26	0.199
609.47	0.200
609.67	0.199
609.87	0.200
610.07	0.198
610.28	0.197
610.48	0.197
610.68	0.197
610.88	0.196
611.08	0.196
611.29	0.195
611.49	0.194
611.69	0.195
611.89	0.193
612.09	0.193
612.29	0.192
612.50	0.192
612.70	0.191
612.90	0.190
613.10	0.190
613.30	0.189
613.51	0.189
613.71	0.189
613.91	0.193
614.11	0.188
614.31	0.188
614.51	0.188
614.72	0.187
614.92	0.187
615.12	0.187
615.32	0.187
615.52	0.187
615.72	0.187
615.93	0.187
616.13	0.186
616.33	0.186
616.53	0.185
616.73	0.185
616.93	0.184
617.14	0.185
617.34	0.184
617.54	0.184
617.74	0.184
617.94	0.183
618.14	0.182
618.34	0.181
618.55	0.181
618.75	0.182
618.95	0.182
619.15	0.182
619.35	0.181
619.55	0.180
619.75	0.180
619.96	0.180
620.16	0.180
620.36	0.180
620.56	0.179
620.76	0.179
620.96	0.178
621.16	0.178
621.36	0.178
621.57	0.178
621.77	0.178
621.97	0.177
622.17	0.177
622.37	0.177
622.57	0.177
622.77	0.177
622.97	0.176
623.18	0.176
623.38	0.176
623.58	0.176
623.78	0.175
623.98	0.174
624.18	0.174
624.38	0.174
624.58	0.174
624.78	0.174
624.98	0.174
625.19	0.173
625.39	0.173
625.59	0.173
625.79	0.173
625.99	0.172
626.19	0.172
626.39	0.172
626.59	0.172
626.79	0.172
626.99	0.172
627.19	0.171
627.40	0.171
627.60	0.171
627.80	0.171
628.00	0.170
628.20	0.170
628.40	0.170
628.60	0.170
628.80	0.168
629.00	0.169
629.20	0.168
629.40	0.168
629.60	0.167
629.80	0.167
630.00	0.167
630.20	0.167
630.41	0.166
630.61	0.166
630.81	0.166
631.01	0.166
631.21	0.165
631.41	0.165
631.61	0.166
631.81	0.165
632.01	0.165
632.21	0.165
632.41	0.164
632.61	0.164
632.81	0.164
633.01	0.164
633.21	0.164
633.41	0.164
633.61	0.163
633.81	0.163
634.01	0.162
634.21	0.162
634.41	0.161
634.61	0.161
634.81	0.161
635.01	0.160
635.22	0.161
