SpectraSuite Data File
++++++++++++++++++++++++++++++++++++
Date: Mon May 20 12:12:01 CDT 2013
User: Students
Dark Spectrum Present: Yes
Reference Spectrum Present: Yes
Number of Sampled Component Spectra: 1
Spectrometers: USB4H00887
Integration Time (usec): 60000 (USB4H00887)
Spectra Averaged: 5 (USB4H00887)
Boxcar Smoothing: 5 (USB4H00887)
Correct for Electrical Dark: No (USB4H00887)
Strobe/Lamp Enabled: No (USB4H00887)
Correct for Detector Non-linearity: No (USB4H00887)
Correct for Stray Light: No (USB4H00887)
Number of Pixels in Processed Spectrum: 3648
>>>>>Begin Processed Spectral Data<<<<<
345.83	0.018
346.05	0.018
346.26	0.018
346.48	-0.079
346.70	0.079
346.92	0.066
347.14	0.064
347.35	0.063
347.57	0.373
347.79	-0.288
348.01	-0.198
348.23	-0.300
348.44	-0.000
348.66	0.263
348.88	-0.343
349.10	-0.167
349.32	0.047
349.53	-0.002
349.75	-0.046
349.97	-0.021
350.19	0.024
350.41	0.036
350.62	-0.131
350.84	-0.001
351.06	0.011
351.28	0.004
351.50	-0.016
351.71	0.021
351.93	0.017
352.15	0.027
352.37	0.076
352.58	0.017
352.80	0.017
353.02	0.015
353.24	0.030
353.46	0.014
353.67	0.068
353.89	0.010
354.11	0.006
354.33	0.031
354.54	0.055
354.76	0.105
354.98	0.136
355.20	0.152
355.41	0.074
355.63	0.162
355.85	0.098
356.07	0.872
356.28	0.060
356.50	0.124
356.72	0.040
356.94	0.140
357.15	0.200
357.37	-0.000
357.59	0.111
357.81	0.085
358.02	0.141
358.24	0.077
358.46	0.213
358.68	0.225
358.89	0.135
359.11	-0.000
359.33	0.097
359.55	-0.529
359.76	0.118
359.98	0.117
360.20	0.121
360.42	0.089
360.63	0.129
360.85	0.075
361.07	0.318
361.29	0.048
361.50	0.112
361.72	0.047
361.94	0.209
362.15	0.097
362.37	0.059
362.59	0.065
362.81	0.113
363.02	0.160
363.24	0.244
363.46	0.139
363.68	0.155
363.89	0.111
364.11	0.156
364.33	0.175
364.54	0.099
364.76	0.136
364.98	0.129
365.20	0.129
365.41	0.088
365.63	0.114
365.85	0.086
366.06	0.278
366.28	0.357
366.50	0.247
366.71	0.101
366.93	0.129
367.15	0.117
367.37	0.104
367.58	0.125
367.80	0.132
368.02	0.354
368.23	0.119
368.45	0.104
368.67	0.055
368.88	0.067
369.10	-0.000
369.32	0.121
369.53	0.072
369.75	0.119
369.97	0.220
370.19	0.151
370.40	0.063
370.62	0.178
370.84	0.082
371.05	0.462
371.27	0.118
371.49	0.116
371.70	0.130
371.92	0.182
372.14	0.091
372.35	0.112
372.57	0.122
372.79	0.314
373.00	0.076
373.22	0.125
373.44	0.142
373.65	0.101
373.87	0.145
374.09	0.731
374.30	0.142
374.52	0.159
374.74	0.123
374.95	0.471
375.17	0.138
375.39	-0.000
375.60	0.146
375.82	0.239
376.04	0.115
376.25	0.130
376.47	0.065
376.68	0.158
376.90	0.089
377.12	0.177
377.33	0.120
377.55	0.281
377.77	0.137
377.98	0.239
378.20	0.151
378.42	0.191
378.63	0.251
378.85	-0.000
379.07	0.167
379.28	0.713
379.50	0.370
379.71	0.202
379.93	0.139
380.15	0.193
380.36	0.287
380.58	0.177
380.80	0.478
381.01	0.152
381.23	0.112
381.44	0.130
381.66	0.157
381.88	0.195
382.09	-0.084
382.31	0.134
382.53	0.143
382.74	0.779
382.96	0.210
383.17	0.168
383.39	0.212
383.61	0.279
383.82	0.191
384.04	0.231
384.25	0.285
384.47	0.256
384.69	0.236
384.90	0.222
385.12	0.427
385.33	0.278
385.55	0.225
385.77	0.348
385.98	0.182
386.20	0.271
386.41	0.228
386.63	0.257
386.85	0.227
387.06	0.275
387.28	0.464
387.49	0.300
387.71	0.201
387.93	0.166
388.14	0.530
388.36	0.211
388.57	0.194
388.79	0.216
389.01	-0.000
389.22	0.289
389.44	0.248
389.65	0.198
389.87	0.201
390.08	0.239
390.30	0.193
390.52	0.371
390.73	0.378
390.95	0.252
391.16	0.246
391.38	-0.000
391.59	0.257
391.81	0.222
392.03	0.209
392.24	0.245
392.46	0.216
392.67	0.191
392.89	0.262
393.10	0.393
393.32	0.273
393.53	0.313
393.75	0.203
393.97	0.219
394.18	0.290
394.40	0.242
394.61	0.253
394.83	0.208
395.04	0.237
395.26	0.165
395.47	0.245
395.69	0.196
395.91	0.207
396.12	0.251
396.34	0.275
396.55	0.188
396.77	0.284
396.98	0.986
397.20	0.341
397.41	0.384
397.63	0.263
397.84	0.228
398.06	0.216
398.27	0.227
398.49	0.246
398.71	0.183
398.92	0.216
399.14	0.265
399.35	0.311
399.57	0.299
399.78	0.216
400.00	0.224
400.21	0.287
400.43	0.237
400.64	0.236
400.86	0.513
401.07	0.299
401.29	0.256
401.50	0.273
401.72	0.408
401.93	0.271
402.15	0.328
402.36	0.294
402.58	0.241
402.79	0.270
403.01	0.469
403.22	0.354
403.44	0.247
403.65	0.405
403.87	0.437
404.08	0.328
404.30	0.508
404.51	0.291
404.73	0.350
404.94	0.304
405.16	0.322
405.37	0.248
405.59	0.450
405.80	0.288
406.02	0.336
406.23	0.341
406.45	0.389
406.66	0.423
406.88	0.276
407.09	0.412
407.31	0.329
407.52	0.380
407.74	0.312
407.95	0.354
408.17	0.322
408.38	0.348
408.60	0.237
408.81	0.379
409.03	0.284
409.24	0.287
409.45	0.332
409.67	0.326
409.88	0.294
410.10	0.370
410.31	0.317
410.53	0.307
410.74	0.421
410.96	0.434
411.17	0.453
411.39	0.361
411.60	0.334
411.82	0.375
412.03	0.358
412.24	0.344
412.46	0.489
412.67	0.398
412.89	0.394
413.10	0.392
413.32	0.354
413.53	0.404
413.75	0.417
413.96	0.323
414.17	0.430
414.39	0.451
414.60	0.375
414.82	0.485
415.03	0.388
415.25	0.423
415.46	0.289
415.68	0.389
415.89	0.653
416.10	0.536
416.32	0.311
416.53	0.357
416.75	0.332
416.96	0.394
417.18	0.349
417.39	0.332
417.60	0.341
417.82	0.499
418.03	0.441
418.25	0.371
418.46	0.387
418.67	0.364
418.89	0.393
419.10	0.410
419.32	0.525
419.53	0.477
419.75	0.423
419.96	0.377
420.17	0.439
420.39	0.420
420.60	0.443
420.82	0.526
421.03	0.434
421.24	0.364
421.46	0.407
421.67	0.444
421.89	0.391
422.10	0.408
422.31	0.396
422.53	0.546
422.74	0.420
422.96	0.342
423.17	0.388
423.38	0.460
423.60	0.397
423.81	0.476
424.03	0.423
424.24	0.458
424.45	0.463
424.67	0.458
424.88	0.414
425.09	0.447
425.31	0.419
425.52	0.433
425.74	0.483
425.95	0.523
426.16	0.414
426.38	0.471
426.59	0.437
426.80	0.487
427.02	0.517
427.23	0.422
427.45	0.538
427.66	0.518
427.87	0.419
428.09	0.443
428.30	0.486
428.51	0.478
428.73	0.519
428.94	0.469
429.15	0.464
429.37	0.446
429.58	0.459
429.79	0.426
430.01	0.497
430.22	0.487
430.44	0.496
430.65	0.452
430.86	0.481
431.08	0.466
431.29	0.431
431.50	0.493
431.72	0.617
431.93	0.522
432.14	0.409
432.36	0.453
432.57	0.465
432.78	0.486
433.00	0.448
433.21	0.446
433.42	0.538
433.64	0.484
433.85	0.550
434.06	0.461
434.28	0.484
434.49	0.507
434.70	0.509
434.92	0.513
435.13	0.539
435.34	0.547
435.56	0.519
435.77	0.517
435.98	0.634
436.20	0.533
436.41	0.467
436.62	0.457
436.83	0.510
437.05	0.566
437.26	0.507
437.47	0.459
437.69	0.501
437.90	0.461
438.11	0.460
438.33	0.501
438.54	0.526
438.75	0.645
438.97	0.643
439.18	0.494
439.39	0.510
439.60	0.547
439.82	0.520
440.03	0.480
440.24	0.665
440.46	0.518
440.67	0.499
440.88	0.524
441.10	0.496
441.31	0.492
441.52	0.529
441.73	0.585
441.95	0.535
442.16	0.501
442.37	0.730
442.58	0.495
442.80	0.491
443.01	0.611
443.22	0.567
443.44	0.493
443.65	0.570
443.86	0.566
444.07	0.599
444.29	0.527
444.50	0.642
444.71	0.507
444.92	0.481
445.14	0.587
445.35	0.616
445.56	0.504
445.78	0.572
445.99	0.569
446.20	0.506
446.41	0.559
446.63	0.560
446.84	0.533
447.05	0.540
447.26	0.623
447.48	0.543
447.69	0.520
447.90	0.581
448.11	0.527
448.33	0.548
448.54	0.558
448.75	0.576
448.96	0.578
449.18	0.604
449.39	0.546
449.60	0.538
449.81	0.629
450.03	0.558
450.24	0.592
450.45	0.566
450.66	0.557
450.87	0.579
451.09	0.551
451.30	0.540
451.51	0.582
451.72	0.595
451.94	0.609
452.15	0.650
452.36	0.561
452.57	0.577
452.78	0.579
453.00	0.598
453.21	0.570
453.42	0.553
453.63	0.617
453.85	0.597
454.06	0.591
454.27	0.672
454.48	0.614
454.69	0.569
454.91	0.613
455.12	0.549
455.33	0.604
455.54	0.614
455.75	0.596
455.97	0.618
456.18	0.613
456.39	0.617
456.60	0.630
456.81	0.589
457.03	0.599
457.24	0.602
457.45	0.664
457.66	0.627
457.87	0.599
458.09	0.613
458.30	0.552
458.51	0.634
458.72	0.646
458.93	0.656
459.15	0.590
459.36	0.632
459.57	0.647
459.78	0.674
459.99	0.617
460.20	0.595
460.42	0.647
460.63	0.617
460.84	0.606
461.05	0.620
461.26	0.659
461.47	0.605
461.69	0.634
461.90	0.652
462.11	0.623
462.32	0.659
462.53	0.618
462.74	0.679
462.96	0.608
463.17	0.602
463.38	0.632
463.59	0.700
463.80	0.607
464.01	0.625
464.23	0.681
464.44	0.657
464.65	0.660
464.86	0.674
465.07	0.677
465.28	0.653
465.49	0.670
465.71	0.637
465.92	0.662
466.13	0.693
466.34	0.650
466.55	0.685
466.76	0.665
466.97	0.684
467.19	0.676
467.40	0.700
467.61	0.704
467.82	0.651
468.03	0.647
468.24	0.693
468.45	0.713
468.66	0.706
468.88	0.712
469.09	0.713
469.30	0.741
469.51	0.697
469.72	0.724
469.93	0.703
470.14	0.692
470.35	0.747
470.57	0.714
470.78	0.675
470.99	0.756
471.20	0.718
471.41	0.690
471.62	0.721
471.83	0.700
472.04	0.718
472.25	0.750
472.47	0.696
472.68	0.700
472.89	0.701
473.10	0.729
473.31	0.697
473.52	0.734
473.73	0.749
473.94	0.698
474.15	0.715
474.36	0.715
474.57	0.727
474.79	0.710
475.00	0.710
475.21	0.702
475.42	0.757
475.63	0.698
475.84	0.719
476.05	0.719
476.26	0.704
476.47	0.723
476.68	0.751
476.89	0.710
477.10	0.742
477.32	0.734
477.53	0.769
477.74	0.720
477.95	0.747
478.16	0.716
478.37	0.744
478.58	0.747
478.79	0.757
479.00	0.756
479.21	0.731
479.42	0.755
479.63	0.758
479.84	0.736
480.05	0.735
480.26	0.752
480.47	0.761
480.69	0.766
480.90	0.749
481.11	0.745
481.32	0.782
481.53	0.747
481.74	0.779
481.95	0.759
482.16	0.769
482.37	0.776
482.58	0.754
482.79	0.766
483.00	0.781
483.21	0.747
483.42	0.732
483.63	0.780
483.84	0.796
484.05	0.789
484.26	0.772
484.47	0.770
484.68	0.747
484.89	0.754
485.10	0.785
485.31	0.775
485.52	0.777
485.73	0.775
485.94	0.797
486.15	0.766
486.37	0.778
486.58	0.756
486.79	0.764
487.00	0.797
487.21	0.791
487.42	0.787
487.63	0.788
487.84	0.799
488.05	0.800
488.26	0.779
488.47	0.783
488.68	0.798
488.89	0.784
489.10	0.781
489.31	0.785
489.52	0.804
489.73	0.784
489.94	0.805
490.15	0.779
490.36	0.801
490.57	0.772
490.78	0.762
490.99	0.784
491.20	0.828
491.41	0.803
491.62	0.769
491.83	0.786
492.04	0.784
492.25	0.788
492.45	0.789
492.66	0.803
492.87	0.797
493.08	0.792
493.29	0.785
493.50	0.780
493.71	0.785
493.92	0.782
494.13	0.792
494.34	0.804
494.55	0.810
494.76	0.828
494.97	0.824
495.18	0.803
495.39	0.812
495.60	0.783
495.81	0.785
496.02	0.799
496.23	0.795
496.44	0.815
496.65	0.810
496.86	0.812
497.07	0.828
497.28	0.826
497.49	0.797
497.70	0.797
497.91	0.808
498.12	0.797
498.32	0.820
498.53	0.811
498.74	0.804
498.95	0.818
499.16	0.792
499.37	0.794
499.58	0.798
499.79	0.813
500.00	0.812
500.21	0.829
500.42	0.798
500.63	0.800
500.84	0.813
501.05	0.801
501.26	0.816
501.46	0.838
501.67	0.817
501.88	0.818
502.09	0.807
502.30	0.811
502.51	0.838
502.72	0.811
502.93	0.820
503.14	0.832
503.35	0.816
503.56	0.814
503.77	0.832
503.97	0.820
504.18	0.820
504.39	0.839
504.60	0.821
504.81	0.837
505.02	0.831
505.23	0.829
505.44	0.818
505.65	0.822
505.86	0.812
506.07	0.848
506.27	0.824
506.48	0.826
506.69	0.818
506.90	0.829
507.11	0.827
507.32	0.813
507.53	0.820
507.74	0.817
507.95	0.824
508.15	0.827
508.36	0.831
508.57	0.837
508.78	0.829
508.99	0.829
509.20	0.815
509.41	0.828
509.62	0.821
509.82	0.820
510.03	0.827
510.24	0.827
510.45	0.840
510.66	0.836
510.87	0.834
511.08	0.808
511.29	0.831
511.49	0.817
511.70	0.843
511.91	0.805
512.12	0.803
512.33	0.821
512.54	0.830
512.75	0.820
512.95	0.833
513.16	0.827
513.37	0.814
513.58	0.837
513.79	0.816
514.00	0.821
514.20	0.833
514.41	0.828
514.62	0.809
514.83	0.833
515.04	0.827
515.25	0.814
515.46	0.821
515.66	0.823
515.87	0.828
516.08	0.812
516.29	0.825
516.50	0.812
516.71	0.807
516.91	0.812
517.12	0.822
517.33	0.814
517.54	0.808
517.75	0.810
517.95	0.816
518.16	0.824
518.37	0.804
518.58	0.808
518.79	0.795
519.00	0.812
519.20	0.818
519.41	0.800
519.62	0.812
519.83	0.817
520.04	0.797
520.24	0.796
520.45	0.800
520.66	0.814
520.87	0.791
521.08	0.790
521.28	0.791
521.49	0.800
521.70	0.783
521.91	0.790
522.12	0.779
522.32	0.790
522.53	0.780
522.74	0.773
522.95	0.778
523.16	0.778
523.36	0.783
523.57	0.772
523.78	0.769
523.99	0.771
524.20	0.767
524.40	0.773
524.61	0.778
524.82	0.762
525.03	0.766
525.23	0.766
525.44	0.756
525.65	0.756
525.86	0.768
526.06	0.751
526.27	0.752
526.48	0.758
526.69	0.749
526.90	0.751
527.10	0.772
527.31	0.743
527.52	0.740
527.73	0.735
527.93	0.740
528.14	0.744
528.35	0.737
528.56	0.737
528.76	0.731
528.97	0.724
529.18	0.719
529.39	0.719
529.59	0.721
529.80	0.739
530.01	0.722
530.22	0.721
530.42	0.701
530.63	0.711
530.84	0.696
531.05	0.706
531.25	0.706
531.46	0.700
531.67	0.686
531.88	0.698
532.08	0.692
532.29	0.690
532.50	0.685
532.70	0.681
532.91	0.675
533.12	0.677
533.33	0.693
533.53	0.675
533.74	0.674
533.95	0.678
534.15	0.670
534.36	0.670
534.57	0.658
534.78	0.659
534.98	0.666
535.19	0.647
535.40	0.648
535.60	0.659
535.81	0.646
536.02	0.648
536.23	0.641
536.43	0.642
536.64	0.634
536.85	0.640
537.05	0.646
537.26	0.629
537.47	0.632
537.67	0.623
537.88	0.620
538.09	0.623
538.30	0.615
538.50	0.610
538.71	0.618
538.92	0.608
539.12	0.605
539.33	0.602
539.54	0.602
539.74	0.604
539.95	0.598
540.16	0.596
540.36	0.592
540.57	0.592
540.78	0.587
540.98	0.585
541.19	0.585
541.40	0.577
541.60	0.584
541.81	0.580
542.02	0.581
542.22	0.574
542.43	0.569
542.64	0.565
542.84	0.566
543.05	0.560
543.26	0.561
543.46	0.563
543.67	0.561
543.88	0.557
544.08	0.550
544.29	0.545
544.50	0.546
544.70	0.548
544.91	0.541
545.12	0.542
545.32	0.539
545.53	0.541
545.74	0.533
545.94	0.531
546.15	0.530
546.35	0.528
546.56	0.526
546.77	0.524
546.97	0.522
547.18	0.517
547.39	0.517
547.59	0.515
547.80	0.513
548.01	0.516
548.21	0.513
548.42	0.506
548.62	0.506
548.83	0.505
549.04	0.502
549.24	0.496
549.45	0.496
549.65	0.493
549.86	0.490
550.07	0.489
550.27	0.487
550.48	0.493
550.69	0.482
550.89	0.482
551.10	0.479
551.30	0.477
551.51	0.477
551.72	0.469
551.92	0.471
552.13	0.471
552.33	0.472
552.54	0.467
552.75	0.462
552.95	0.464
553.16	0.460
553.36	0.459
553.57	0.458
553.78	0.456
553.98	0.457
554.19	0.449
554.39	0.447
554.60	0.449
554.80	0.450
555.01	0.444
555.22	0.445
555.42	0.441
555.63	0.436
555.83	0.439
556.04	0.434
556.25	0.436
556.45	0.429
556.66	0.428
556.86	0.431
557.07	0.429
557.27	0.428
557.48	0.424
557.68	0.423
557.89	0.424
558.10	0.421
558.30	0.418
558.51	0.417
558.71	0.415
558.92	0.410
559.12	0.412
559.33	0.415
559.54	0.411
559.74	0.407
559.95	0.406
560.15	0.405
560.36	0.404
560.56	0.399
560.77	0.400
560.97	0.400
561.18	0.397
561.38	0.396
561.59	0.398
561.79	0.395
562.00	0.394
562.21	0.391
562.41	0.390
562.62	0.390
562.82	0.389
563.03	0.386
563.23	0.386
563.44	0.386
563.64	0.384
563.85	0.385
564.05	0.379
564.26	0.378
564.46	0.378
564.67	0.379
564.87	0.376
565.08	0.373
565.28	0.372
565.49	0.373
565.69	0.371
565.90	0.368
566.10	0.370
566.31	0.365
566.51	0.368
566.72	0.368
566.92	0.363
567.13	0.362
567.33	0.361
567.54	0.360
567.74	0.360
567.95	0.356
568.15	0.358
568.36	0.357
568.56	0.356
568.77	0.352
568.97	0.350
569.18	0.350
569.38	0.349
569.59	0.350
569.79	0.347
570.00	0.345
570.20	0.344
570.41	0.342
570.61	0.341
570.82	0.342
571.02	0.339
571.23	0.341
571.43	0.337
571.64	0.336
571.84	0.336
572.05	0.335
572.25	0.335
572.45	0.333
572.66	0.330
572.86	0.329
573.07	0.328
573.27	0.329
573.48	0.329
573.68	0.326
573.89	0.325
574.09	0.327
574.30	0.325
574.50	0.323
574.70	0.324
574.91	0.322
575.11	0.323
575.32	0.322
575.52	0.318
575.73	0.318
575.93	0.317
576.14	0.316
576.34	0.315
576.54	0.314
576.75	0.313
576.95	0.313
577.16	0.311
577.36	0.310
577.57	0.310
577.77	0.308
577.97	0.306
578.18	0.308
578.38	0.304
578.59	0.303
578.79	0.301
579.00	0.301
579.20	0.300
579.40	0.299
579.61	0.299
579.81	0.297
580.02	0.296
580.22	0.296
580.42	0.295
580.63	0.296
580.83	0.295
581.04	0.293
581.24	0.293
581.45	0.291
581.65	0.291
581.85	0.291
582.06	0.289
582.26	0.289
582.47	0.287
582.67	0.287
582.87	0.286
583.08	0.284
583.28	0.284
583.48	0.283
583.69	0.281
583.89	0.281
584.10	0.281
584.30	0.279
584.50	0.278
584.71	0.278
584.91	0.278
585.12	0.276
585.32	0.277
585.52	0.275
585.73	0.274
585.93	0.273
586.13	0.272
586.34	0.271
586.54	0.271
586.75	0.270
586.95	0.268
587.15	0.268
587.36	0.267
587.56	0.267
587.76	0.265
587.97	0.265
588.17	0.264
588.37	0.264
588.58	0.264
588.78	0.262
588.98	0.263
589.19	0.262
589.39	0.260
589.60	0.262
589.80	0.259
590.00	0.259
590.21	0.259
590.41	0.257
590.61	0.257
590.82	0.257
591.02	0.256
591.22	0.254
591.43	0.256
591.63	0.254
591.83	0.254
592.04	0.252
592.24	0.253
592.44	0.251
592.65	0.250
592.85	0.250
593.05	0.250
593.26	0.249
593.46	0.249
593.66	0.249
593.86	0.247
594.07	0.245
594.27	0.246
594.47	0.244
594.68	0.244
594.88	0.245
595.08	0.244
595.29	0.245
595.49	0.242
595.69	0.242
595.90	0.241
596.10	0.242
596.30	0.241
596.50	0.240
596.71	0.240
596.91	0.239
597.11	0.238
597.32	0.237
597.52	0.237
597.72	0.237
597.93	0.236
598.13	0.235
598.33	0.235
598.53	0.234
598.74	0.234
598.94	0.233
599.14	0.233
599.35	0.234
599.55	0.234
599.75	0.233
599.95	0.231
600.16	0.232
600.36	0.230
600.56	0.231
600.76	0.230
600.97	0.229
601.17	0.228
601.37	0.228
601.58	0.227
601.78	0.227
601.98	0.226
602.18	0.225
602.39	0.225
602.59	0.225
602.79	0.224
602.99	0.224
603.20	0.223
603.40	0.223
603.60	0.223
603.80	0.223
604.01	0.223
604.21	0.222
604.41	0.222
604.61	0.221
604.82	0.220
605.02	0.221
605.22	0.220
605.42	0.220
605.62	0.220
605.83	0.218
606.03	0.217
606.23	0.217
606.43	0.217
606.64	0.217
606.84	0.216
607.04	0.215
607.24	0.215
607.45	0.215
607.65	0.213
607.85	0.214
608.05	0.213
608.25	0.213
608.46	0.213
608.66	0.213
608.86	0.213
609.06	0.212
609.26	0.211
609.47	0.212
609.67	0.211
609.87	0.212
610.07	0.210
610.28	0.209
610.48	0.209
610.68	0.209
610.88	0.208
611.08	0.208
611.29	0.207
611.49	0.206
611.69	0.207
611.89	0.206
612.09	0.205
612.29	0.205
612.50	0.205
612.70	0.205
612.90	0.204
613.10	0.203
613.30	0.202
613.51	0.203
613.71	0.203
613.91	0.207
614.11	0.202
614.31	0.202
614.51	0.202
614.72	0.201
614.92	0.201
615.12	0.201
615.32	0.201
615.52	0.201
615.72	0.201
615.93	0.201
616.13	0.200
616.33	0.200
616.53	0.200
616.73	0.200
616.93	0.198
617.14	0.199
617.34	0.199
617.54	0.199
617.74	0.199
617.94	0.198
618.14	0.198
618.34	0.197
618.55	0.197
618.75	0.197
618.95	0.197
619.15	0.197
619.35	0.196
619.55	0.194
619.75	0.195
619.96	0.194
620.16	0.194
620.36	0.194
620.56	0.193
620.76	0.193
620.96	0.193
621.16	0.193
621.36	0.192
621.57	0.192
621.77	0.193
621.97	0.191
622.17	0.191
622.37	0.191
622.57	0.191
622.77	0.190
622.97	0.189
623.18	0.189
623.38	0.190
623.58	0.190
623.78	0.189
623.98	0.189
624.18	0.188
624.38	0.188
624.58	0.188
624.78	0.188
624.98	0.188
625.19	0.187
625.39	0.187
625.59	0.186
625.79	0.186
625.99	0.185
626.19	0.185
626.39	0.185
626.59	0.185
626.79	0.185
626.99	0.185
627.19	0.185
627.40	0.185
627.60	0.184
627.80	0.184
628.00	0.184
628.20	0.184
628.40	0.184
628.60	0.183
628.80	0.182
629.00	0.182
629.20	0.181
629.40	0.181
629.60	0.180
629.80	0.181
630.00	0.180
630.20	0.180
630.41	0.179
630.61	0.179
630.81	0.179
631.01	0.179
631.21	0.178
631.41	0.179
631.61	0.179
631.81	0.179
632.01	0.178
632.21	0.178
632.41	0.177
632.61	0.177
632.81	0.177
633.01	0.177
633.21	0.177
633.41	0.178
633.61	0.176
633.81	0.176
634.01	0.176
634.21	0.176
634.41	0.175
634.61	0.176
634.81	0.175
635.01	0.175
635.22	0.175
