SpectraSuite Data File
++++++++++++++++++++++++++++++++++++
Date: Mon May 20 12:11:23 CDT 2013
User: Students
Dark Spectrum Present: Yes
Reference Spectrum Present: Yes
Number of Sampled Component Spectra: 1
Spectrometers: USB4H00887
Integration Time (usec): 60000 (USB4H00887)
Spectra Averaged: 5 (USB4H00887)
Boxcar Smoothing: 5 (USB4H00887)
Correct for Electrical Dark: No (USB4H00887)
Strobe/Lamp Enabled: No (USB4H00887)
Correct for Detector Non-linearity: No (USB4H00887)
Correct for Stray Light: No (USB4H00887)
Number of Pixels in Processed Spectrum: 3648
>>>>>Begin Processed Spectral Data<<<<<
345.83	-0.028
346.05	-0.028
346.26	-0.028
346.48	0.574
346.70	0.207
346.92	0.076
347.14	0.053
347.35	0.063
347.57	0.384
347.79	-0.277
348.01	-0.195
348.23	-0.327
348.44	-0.000
348.66	0.399
348.88	-0.420
349.10	-0.221
349.32	0.135
349.53	-0.057
349.75	-0.092
349.97	-0.060
350.19	-0.043
350.41	-0.058
350.62	1.299
350.84	-0.020
351.06	-0.002
351.28	-0.016
351.50	-0.015
351.71	0.116
351.93	0.124
352.15	0.044
352.37	0.184
352.58	0.055
352.80	0.055
353.02	0.081
353.24	0.067
353.46	0.326
353.67	-0.102
353.89	0.017
354.11	0.009
354.33	0.008
354.54	0.022
354.76	0.054
354.98	0.122
355.20	0.146
355.41	0.087
355.63	0.182
355.85	0.067
356.07	0.634
356.28	0.062
356.50	0.128
356.72	0.044
356.94	0.082
357.15	0.119
357.37	0.372
357.59	0.021
357.81	-0.002
358.02	0.026
358.24	0.038
358.46	0.093
358.68	0.086
358.89	0.047
359.11	-0.000
359.33	0.058
359.55	-0.480
359.76	0.122
359.98	0.144
360.20	0.160
360.42	0.148
360.63	0.166
360.85	0.119
361.07	0.993
361.29	0.107
361.50	0.277
361.72	0.102
361.94	0.337
362.15	0.133
362.37	0.061
362.59	0.048
362.81	0.079
363.02	0.139
363.24	0.238
363.46	0.146
363.68	0.211
363.89	0.144
364.11	0.215
364.33	0.262
364.54	0.155
364.76	0.223
364.98	0.233
365.20	0.193
365.41	0.113
365.63	0.138
365.85	0.090
366.06	0.186
366.28	0.182
366.50	0.112
366.71	0.053
366.93	0.070
367.15	0.049
367.37	0.055
367.58	0.092
367.80	0.128
368.02	0.309
368.23	0.106
368.45	0.121
368.67	0.121
368.88	0.119
369.10	-0.000
369.32	0.137
369.53	0.082
369.75	0.131
369.97	0.329
370.19	0.172
370.40	0.080
370.62	0.266
370.84	0.110
371.05	0.714
371.27	0.145
371.49	0.137
371.70	0.144
371.92	0.227
372.14	0.105
372.35	0.113
372.57	0.132
372.79	0.295
373.00	0.071
373.22	0.096
373.44	0.062
373.65	0.077
373.87	0.134
374.09	0.554
374.30	0.118
374.52	0.130
374.74	0.103
374.95	0.367
375.17	0.114
375.39	-0.000
375.60	0.124
375.82	0.229
376.04	0.086
376.25	0.088
376.47	0.061
376.68	0.151
376.90	0.092
377.12	0.155
377.33	0.113
377.55	0.252
377.77	0.139
377.98	0.198
378.20	0.126
378.42	0.159
378.63	0.212
378.85	-0.000
379.07	0.139
379.28	0.517
379.50	0.324
379.71	0.156
379.93	0.111
380.15	0.163
380.36	0.238
380.58	0.160
380.80	0.487
381.01	0.135
381.23	0.117
381.44	0.117
381.66	0.128
381.88	0.158
382.09	-0.079
382.31	0.122
382.53	0.122
382.74	0.736
382.96	0.191
383.17	0.144
383.39	0.183
383.61	0.201
383.82	0.160
384.04	0.197
384.25	0.242
384.47	0.215
384.69	0.208
384.90	0.195
385.12	0.359
385.33	0.245
385.55	0.188
385.77	0.338
385.98	0.188
386.20	0.243
386.41	0.209
386.63	0.243
386.85	0.210
387.06	0.262
387.28	0.389
387.49	0.247
387.71	0.187
387.93	0.181
388.14	0.523
388.36	0.212
388.57	0.202
388.79	0.228
389.01	-0.000
389.22	0.276
389.44	0.235
389.65	0.195
389.87	0.206
390.08	0.237
390.30	0.168
390.52	0.332
390.73	0.328
390.95	0.221
391.16	0.224
391.38	-0.000
391.59	0.271
391.81	0.229
392.03	0.215
392.24	0.253
392.46	0.205
392.67	0.183
392.89	0.257
393.10	0.388
393.32	0.267
393.53	0.288
393.75	0.171
393.97	0.198
394.18	0.263
394.40	0.226
394.61	0.221
394.83	0.212
395.04	0.255
395.26	0.171
395.47	0.252
395.69	0.221
395.91	0.250
396.12	0.313
396.34	0.297
396.55	0.197
396.77	0.303
396.98	1.156
397.20	0.354
397.41	0.385
397.63	0.270
397.84	0.244
398.06	0.215
398.27	0.207
398.49	0.245
398.71	0.182
398.92	0.219
399.14	0.253
399.35	0.312
399.57	0.276
399.78	0.195
400.00	0.183
400.21	0.218
400.43	0.192
400.64	0.203
400.86	0.374
401.07	0.227
401.29	0.200
401.50	0.216
401.72	0.306
401.93	0.207
402.15	0.264
402.36	0.243
402.58	0.210
402.79	0.232
403.01	0.378
403.22	0.310
403.44	0.220
403.65	0.333
403.87	0.378
404.08	0.299
404.30	0.476
404.51	0.256
404.73	0.296
404.94	0.258
405.16	0.258
405.37	0.198
405.59	0.321
405.80	0.213
406.02	0.259
406.23	0.254
406.45	0.274
406.66	0.289
406.88	0.202
407.09	0.312
407.31	0.254
407.52	0.297
407.74	0.257
407.95	0.291
408.17	0.278
408.38	0.293
408.60	0.206
408.81	0.320
409.03	0.242
409.24	0.252
409.45	0.277
409.67	0.269
409.88	0.255
410.10	0.309
410.31	0.262
410.53	0.248
410.74	0.322
410.96	0.298
411.17	0.304
411.39	0.252
411.60	0.228
411.82	0.266
412.03	0.254
412.24	0.240
412.46	0.308
412.67	0.279
412.89	0.283
413.10	0.283
413.32	0.272
413.53	0.312
413.75	0.327
413.96	0.263
414.17	0.326
414.39	0.333
414.60	0.292
414.82	0.384
415.03	0.303
415.25	0.329
415.46	0.246
415.68	0.328
415.89	0.514
416.10	0.428
416.32	0.266
416.53	0.311
416.75	0.300
416.96	0.339
417.18	0.299
417.39	0.292
417.60	0.291
417.82	0.380
418.03	0.349
418.25	0.309
418.46	0.329
418.67	0.302
418.89	0.319
419.10	0.328
419.32	0.415
419.53	0.385
419.75	0.335
419.96	0.300
420.17	0.356
420.39	0.337
420.60	0.340
420.82	0.391
421.03	0.331
421.24	0.287
421.46	0.313
421.67	0.332
421.89	0.298
422.10	0.316
422.31	0.315
422.53	0.406
422.74	0.326
422.96	0.270
423.17	0.298
423.38	0.358
423.60	0.313
423.81	0.374
424.03	0.336
424.24	0.352
424.45	0.355
424.67	0.354
424.88	0.323
425.09	0.342
425.31	0.323
425.52	0.336
425.74	0.369
425.95	0.390
426.16	0.316
426.38	0.353
426.59	0.339
426.80	0.376
427.02	0.383
427.23	0.323
427.45	0.398
427.66	0.391
427.87	0.324
428.09	0.337
428.30	0.366
428.51	0.365
428.73	0.394
428.94	0.356
429.15	0.352
429.37	0.349
429.58	0.360
429.79	0.341
430.01	0.401
430.22	0.400
430.44	0.408
430.65	0.380
430.86	0.401
431.08	0.393
431.29	0.365
431.50	0.408
431.72	0.488
431.93	0.426
432.14	0.344
432.36	0.367
432.57	0.368
432.78	0.374
433.00	0.347
433.21	0.345
433.42	0.409
433.64	0.376
433.85	0.417
434.06	0.358
434.28	0.376
434.49	0.383
434.70	0.385
434.92	0.391
435.13	0.417
435.34	0.421
435.56	0.404
435.77	0.401
435.98	0.477
436.20	0.422
436.41	0.372
436.62	0.361
436.83	0.394
437.05	0.432
437.26	0.398
437.47	0.367
437.69	0.391
437.90	0.370
438.11	0.364
438.33	0.387
438.54	0.397
438.75	0.477
438.97	0.475
439.18	0.388
439.39	0.402
439.60	0.421
439.82	0.402
440.03	0.382
440.24	0.496
440.46	0.408
440.67	0.399
440.88	0.422
441.10	0.399
441.31	0.397
441.52	0.422
441.73	0.459
441.95	0.424
442.16	0.396
442.37	0.530
442.58	0.386
442.80	0.383
443.01	0.459
443.22	0.431
443.44	0.385
443.65	0.438
443.86	0.434
444.07	0.452
444.29	0.405
444.50	0.482
444.71	0.403
444.92	0.384
445.14	0.451
445.35	0.472
445.56	0.402
445.78	0.453
445.99	0.449
446.20	0.407
446.41	0.446
446.63	0.450
446.84	0.425
447.05	0.427
447.26	0.485
447.48	0.434
447.69	0.417
447.90	0.456
448.11	0.415
448.33	0.431
448.54	0.442
448.75	0.458
448.96	0.465
449.18	0.490
449.39	0.452
449.60	0.443
449.81	0.502
450.03	0.452
450.24	0.476
450.45	0.462
450.66	0.454
450.87	0.468
451.09	0.447
451.30	0.433
451.51	0.466
451.72	0.466
451.94	0.474
452.15	0.509
452.36	0.455
452.57	0.465
452.78	0.461
453.00	0.475
453.21	0.453
453.42	0.439
453.63	0.486
453.85	0.468
454.06	0.467
454.27	0.521
454.48	0.478
454.69	0.443
454.91	0.473
455.12	0.433
455.33	0.471
455.54	0.481
455.75	0.473
455.97	0.485
456.18	0.480
456.39	0.487
456.60	0.496
456.81	0.470
457.03	0.476
457.24	0.476
457.45	0.517
457.66	0.492
457.87	0.472
458.09	0.477
458.30	0.436
458.51	0.491
458.72	0.499
458.93	0.509
459.15	0.469
459.36	0.499
459.57	0.510
459.78	0.527
459.99	0.487
460.20	0.473
460.42	0.508
460.63	0.490
460.84	0.484
461.05	0.494
461.26	0.518
461.47	0.485
461.69	0.506
461.90	0.520
462.11	0.503
462.32	0.532
462.53	0.503
462.74	0.547
462.96	0.498
463.17	0.494
463.38	0.510
463.59	0.552
463.80	0.487
464.01	0.498
464.23	0.534
464.44	0.520
464.65	0.520
464.86	0.533
465.07	0.531
465.28	0.519
465.49	0.532
465.71	0.512
465.92	0.530
466.13	0.552
466.34	0.526
466.55	0.552
466.76	0.534
466.97	0.548
467.19	0.545
467.40	0.564
467.61	0.563
467.82	0.528
468.03	0.521
468.24	0.550
468.45	0.563
468.66	0.556
468.88	0.559
469.09	0.562
469.30	0.579
469.51	0.547
469.72	0.564
469.93	0.553
470.14	0.543
470.35	0.579
470.57	0.561
470.78	0.538
470.99	0.590
471.20	0.567
471.41	0.546
471.62	0.565
471.83	0.555
472.04	0.564
472.25	0.583
472.47	0.551
472.68	0.554
472.89	0.557
473.10	0.575
473.31	0.556
473.52	0.580
473.73	0.593
473.94	0.560
474.15	0.572
474.36	0.576
474.57	0.584
474.79	0.575
475.00	0.574
475.21	0.567
475.42	0.602
475.63	0.566
475.84	0.579
476.05	0.580
476.26	0.570
476.47	0.584
476.68	0.602
476.89	0.575
477.10	0.595
477.32	0.593
477.53	0.615
477.74	0.581
477.95	0.597
478.16	0.575
478.37	0.594
478.58	0.598
478.79	0.603
479.00	0.602
479.21	0.588
479.42	0.604
479.63	0.605
479.84	0.592
480.05	0.593
480.26	0.604
480.47	0.611
480.69	0.611
480.90	0.597
481.11	0.597
481.32	0.620
481.53	0.594
481.74	0.615
481.95	0.603
482.16	0.609
482.37	0.612
482.58	0.599
482.79	0.605
483.00	0.616
483.21	0.596
483.42	0.587
483.63	0.620
483.84	0.632
484.05	0.627
484.26	0.617
484.47	0.614
484.68	0.599
484.89	0.604
485.10	0.625
485.31	0.617
485.52	0.618
485.73	0.617
485.94	0.629
486.15	0.610
486.37	0.618
486.58	0.605
486.79	0.610
487.00	0.631
487.21	0.628
487.42	0.625
487.63	0.627
487.84	0.632
488.05	0.633
488.26	0.617
488.47	0.619
488.68	0.629
488.89	0.620
489.10	0.621
489.31	0.624
489.52	0.636
489.73	0.625
489.94	0.639
490.15	0.626
490.36	0.641
490.57	0.624
490.78	0.618
490.99	0.634
491.20	0.662
491.41	0.646
491.62	0.625
491.83	0.637
492.04	0.634
492.25	0.639
492.45	0.637
492.66	0.646
492.87	0.641
493.08	0.638
493.29	0.630
493.50	0.627
493.71	0.630
493.92	0.629
494.13	0.633
494.34	0.643
494.55	0.643
494.76	0.655
494.97	0.653
495.18	0.641
495.39	0.646
495.60	0.628
495.81	0.630
496.02	0.637
496.23	0.635
496.44	0.649
496.65	0.644
496.86	0.648
497.07	0.657
497.28	0.655
497.49	0.636
497.70	0.639
497.91	0.647
498.12	0.640
498.32	0.658
498.53	0.652
498.74	0.648
498.95	0.658
499.16	0.641
499.37	0.642
499.58	0.648
499.79	0.660
500.00	0.656
500.21	0.667
500.42	0.645
500.63	0.645
500.84	0.653
501.05	0.646
501.26	0.656
501.46	0.671
501.67	0.657
501.88	0.657
502.09	0.648
502.30	0.652
502.51	0.669
502.72	0.655
502.93	0.661
503.14	0.669
503.35	0.658
503.56	0.656
503.77	0.666
503.97	0.658
504.18	0.659
504.39	0.670
504.60	0.658
504.81	0.669
505.02	0.664
505.23	0.664
505.44	0.656
505.65	0.659
505.86	0.651
506.07	0.674
506.27	0.660
506.48	0.663
506.69	0.657
506.90	0.664
507.11	0.663
507.32	0.654
507.53	0.656
507.74	0.653
507.95	0.659
508.15	0.663
508.36	0.665
508.57	0.669
508.78	0.662
508.99	0.661
509.20	0.652
509.41	0.661
509.62	0.659
509.82	0.659
510.03	0.663
510.24	0.663
510.45	0.672
510.66	0.668
510.87	0.667
511.08	0.652
511.29	0.669
511.49	0.662
511.70	0.677
511.91	0.653
512.12	0.652
512.33	0.665
512.54	0.669
512.75	0.662
512.95	0.672
513.16	0.669
513.37	0.661
513.58	0.673
513.79	0.660
514.00	0.664
514.20	0.670
514.41	0.666
514.62	0.652
514.83	0.666
515.04	0.664
515.25	0.655
515.46	0.659
515.66	0.660
515.87	0.666
516.08	0.655
516.29	0.662
516.50	0.655
516.71	0.653
516.91	0.658
517.12	0.665
517.33	0.659
517.54	0.654
517.75	0.655
517.95	0.659
518.16	0.662
518.37	0.649
518.58	0.651
518.79	0.642
519.00	0.653
519.20	0.656
519.41	0.646
519.62	0.652
519.83	0.656
520.04	0.643
520.24	0.643
520.45	0.646
520.66	0.655
520.87	0.641
521.08	0.639
521.28	0.641
521.49	0.648
521.70	0.636
521.91	0.640
522.12	0.633
522.32	0.642
522.53	0.633
522.74	0.629
522.95	0.631
523.16	0.632
523.36	0.636
523.57	0.628
523.78	0.626
523.99	0.628
524.20	0.625
524.40	0.629
524.61	0.631
524.82	0.621
525.03	0.623
525.23	0.622
525.44	0.616
525.65	0.615
525.86	0.626
526.06	0.613
526.27	0.612
526.48	0.617
526.69	0.610
526.90	0.612
527.10	0.625
527.31	0.607
527.52	0.605
527.73	0.601
527.93	0.605
528.14	0.605
528.35	0.601
528.56	0.601
528.76	0.596
528.97	0.592
529.18	0.587
529.39	0.587
529.59	0.588
529.80	0.600
530.01	0.589
530.22	0.588
530.42	0.576
530.63	0.584
530.84	0.574
531.05	0.580
531.25	0.581
531.46	0.577
531.67	0.568
531.88	0.576
532.08	0.572
532.29	0.570
532.50	0.567
532.70	0.562
532.91	0.558
533.12	0.560
533.33	0.571
533.53	0.558
533.74	0.558
533.95	0.561
534.15	0.555
534.36	0.556
534.57	0.548
534.78	0.548
534.98	0.553
535.19	0.539
535.40	0.539
535.60	0.546
535.81	0.537
536.02	0.538
536.23	0.533
536.43	0.534
536.64	0.528
536.85	0.531
537.05	0.536
537.26	0.526
537.47	0.528
537.67	0.523
537.88	0.521
538.09	0.524
538.30	0.519
538.50	0.514
538.71	0.520
538.92	0.513
539.12	0.511
539.33	0.509
539.54	0.509
539.74	0.510
539.95	0.506
540.16	0.504
540.36	0.500
540.57	0.500
540.78	0.497
540.98	0.497
541.19	0.496
541.40	0.489
541.60	0.495
541.81	0.493
542.02	0.492
542.22	0.487
542.43	0.484
542.64	0.482
542.84	0.482
543.05	0.477
543.26	0.477
543.46	0.479
543.67	0.479
543.88	0.476
544.08	0.471
544.29	0.469
544.50	0.470
544.70	0.471
544.91	0.466
545.12	0.467
545.32	0.465
545.53	0.467
545.74	0.460
545.94	0.458
546.15	0.457
546.35	0.456
546.56	0.453
546.77	0.451
546.97	0.450
547.18	0.445
547.39	0.445
547.59	0.444
547.80	0.442
548.01	0.445
548.21	0.443
548.42	0.438
548.62	0.438
548.83	0.437
549.04	0.435
549.24	0.431
549.45	0.430
549.65	0.430
549.86	0.427
550.07	0.427
550.27	0.426
550.48	0.431
550.69	0.422
550.89	0.422
551.10	0.421
551.30	0.420
551.51	0.420
551.72	0.414
551.92	0.415
552.13	0.416
552.33	0.416
552.54	0.413
552.75	0.408
552.95	0.409
553.16	0.406
553.36	0.405
553.57	0.404
553.78	0.402
553.98	0.403
554.19	0.398
554.39	0.396
554.60	0.398
554.80	0.398
555.01	0.394
555.22	0.396
555.42	0.394
555.63	0.390
555.83	0.394
556.04	0.390
556.25	0.392
556.45	0.385
556.66	0.384
556.86	0.387
557.07	0.386
557.27	0.386
557.48	0.382
557.68	0.381
557.89	0.382
558.10	0.380
558.30	0.378
558.51	0.377
558.71	0.375
558.92	0.372
559.12	0.373
559.33	0.375
559.54	0.372
559.74	0.369
559.95	0.367
560.15	0.367
560.36	0.366
560.56	0.362
560.77	0.363
560.97	0.363
561.18	0.360
561.38	0.360
561.59	0.363
561.79	0.360
562.00	0.359
562.21	0.357
562.41	0.356
562.62	0.356
562.82	0.355
563.03	0.353
563.23	0.353
563.44	0.353
563.64	0.351
563.85	0.353
564.05	0.348
564.26	0.349
564.46	0.349
564.67	0.350
564.87	0.347
565.08	0.344
565.28	0.344
565.49	0.345
565.69	0.343
565.90	0.341
566.10	0.343
566.31	0.337
566.51	0.339
566.72	0.340
566.92	0.335
567.13	0.335
567.33	0.335
567.54	0.334
567.74	0.334
567.95	0.331
568.15	0.333
568.36	0.333
568.56	0.332
568.77	0.328
568.97	0.327
569.18	0.328
569.38	0.327
569.59	0.328
569.79	0.326
570.00	0.324
570.20	0.323
570.41	0.321
570.61	0.320
570.82	0.321
571.02	0.318
571.23	0.320
571.43	0.317
571.64	0.316
571.84	0.315
572.05	0.314
572.25	0.314
572.45	0.313
572.66	0.311
572.86	0.310
573.07	0.309
573.27	0.310
573.48	0.309
573.68	0.306
573.89	0.306
574.09	0.307
574.30	0.306
574.50	0.305
574.70	0.305
574.91	0.303
575.11	0.304
575.32	0.305
575.52	0.302
575.73	0.302
575.93	0.301
576.14	0.301
576.34	0.300
576.54	0.299
576.75	0.298
576.95	0.297
577.16	0.296
577.36	0.295
577.57	0.294
577.77	0.292
577.97	0.291
578.18	0.293
578.38	0.290
578.59	0.289
578.79	0.289
579.00	0.289
579.20	0.288
579.40	0.288
579.61	0.287
579.81	0.287
580.02	0.285
580.22	0.285
580.42	0.284
580.63	0.285
580.83	0.284
581.04	0.282
581.24	0.282
581.45	0.281
581.65	0.281
581.85	0.281
582.06	0.280
582.26	0.280
582.47	0.279
582.67	0.279
582.87	0.279
583.08	0.277
583.28	0.277
583.48	0.276
583.69	0.273
583.89	0.274
584.10	0.275
584.30	0.272
584.50	0.271
584.71	0.270
584.91	0.270
585.12	0.268
585.32	0.269
585.52	0.267
585.73	0.266
585.93	0.267
586.13	0.266
586.34	0.265
586.54	0.265
586.75	0.264
586.95	0.263
587.15	0.263
587.36	0.263
587.56	0.263
587.76	0.262
587.97	0.261
588.17	0.260
588.37	0.260
588.58	0.261
588.78	0.258
588.98	0.259
589.19	0.258
589.39	0.257
589.60	0.258
589.80	0.255
590.00	0.255
590.21	0.255
590.41	0.254
590.61	0.254
590.82	0.254
591.02	0.254
591.22	0.252
591.43	0.253
591.63	0.251
591.83	0.252
592.04	0.250
592.24	0.251
592.44	0.249
592.65	0.248
592.85	0.248
593.05	0.248
593.26	0.247
593.46	0.247
593.66	0.247
593.86	0.246
594.07	0.245
594.27	0.245
594.47	0.244
594.68	0.243
594.88	0.244
595.08	0.243
595.29	0.244
595.49	0.242
595.69	0.242
595.90	0.241
596.10	0.241
596.30	0.241
596.50	0.240
596.71	0.240
596.91	0.240
597.11	0.239
597.32	0.239
597.52	0.238
597.72	0.238
597.93	0.238
598.13	0.236
598.33	0.237
598.53	0.236
598.74	0.235
598.94	0.234
599.14	0.234
599.35	0.235
599.55	0.235
599.75	0.234
599.95	0.234
600.16	0.234
600.36	0.233
600.56	0.233
600.76	0.233
600.97	0.231
601.17	0.231
601.37	0.231
601.58	0.230
601.78	0.230
601.98	0.229
602.18	0.228
602.39	0.228
602.59	0.228
602.79	0.227
602.99	0.227
603.20	0.226
603.40	0.227
603.60	0.227
603.80	0.226
604.01	0.226
604.21	0.225
604.41	0.225
604.61	0.224
604.82	0.223
605.02	0.224
605.22	0.223
605.42	0.223
605.62	0.223
605.83	0.222
606.03	0.221
606.23	0.222
606.43	0.222
606.64	0.222
606.84	0.221
607.04	0.221
607.24	0.220
607.45	0.220
607.65	0.219
607.85	0.220
608.05	0.218
608.25	0.218
608.46	0.218
608.66	0.218
608.86	0.217
609.06	0.216
609.26	0.216
609.47	0.217
609.67	0.215
609.87	0.217
610.07	0.216
610.28	0.214
610.48	0.215
610.68	0.215
610.88	0.213
611.08	0.214
611.29	0.213
611.49	0.212
611.69	0.213
611.89	0.210
612.09	0.210
612.29	0.210
612.50	0.209
612.70	0.209
612.90	0.208
613.10	0.208
613.30	0.208
613.51	0.208
613.71	0.207
613.91	0.212
614.11	0.207
614.31	0.207
614.51	0.207
614.72	0.206
614.92	0.206
615.12	0.206
615.32	0.206
615.52	0.206
615.72	0.206
615.93	0.206
616.13	0.206
616.33	0.206
616.53	0.205
616.73	0.206
616.93	0.204
617.14	0.205
617.34	0.205
617.54	0.205
617.74	0.204
617.94	0.204
618.14	0.203
618.34	0.202
618.55	0.202
618.75	0.203
618.95	0.203
619.15	0.202
619.35	0.201
619.55	0.201
619.75	0.202
619.96	0.201
620.16	0.201
620.36	0.201
620.56	0.200
620.76	0.200
620.96	0.199
621.16	0.199
621.36	0.199
621.57	0.200
621.77	0.200
621.97	0.198
622.17	0.198
622.37	0.198
622.57	0.198
622.77	0.198
622.97	0.197
623.18	0.197
623.38	0.197
623.58	0.197
623.78	0.196
623.98	0.196
624.18	0.195
624.38	0.195
624.58	0.195
624.78	0.195
624.98	0.195
625.19	0.195
625.39	0.194
625.59	0.194
625.79	0.194
625.99	0.193
626.19	0.193
626.39	0.193
626.59	0.192
626.79	0.193
626.99	0.193
627.19	0.192
627.40	0.192
627.60	0.192
627.80	0.192
628.00	0.192
628.20	0.191
628.40	0.191
628.60	0.191
628.80	0.190
629.00	0.190
629.20	0.190
629.40	0.190
629.60	0.189
629.80	0.189
630.00	0.189
630.20	0.189
630.41	0.188
630.61	0.188
630.81	0.188
631.01	0.189
631.21	0.188
631.41	0.188
631.61	0.188
631.81	0.188
632.01	0.187
632.21	0.187
632.41	0.186
632.61	0.186
632.81	0.186
633.01	0.186
633.21	0.185
633.41	0.186
633.61	0.184
633.81	0.184
634.01	0.183
634.21	0.184
634.41	0.183
634.61	0.184
634.81	0.183
635.01	0.183
635.22	0.183
