SpectraSuite Data File
++++++++++++++++++++++++++++++++++++
Date: Mon May 20 12:11:17 CDT 2013
User: Students
Dark Spectrum Present: Yes
Reference Spectrum Present: Yes
Number of Sampled Component Spectra: 1
Spectrometers: USB4H00887
Integration Time (usec): 60000 (USB4H00887)
Spectra Averaged: 5 (USB4H00887)
Boxcar Smoothing: 5 (USB4H00887)
Correct for Electrical Dark: No (USB4H00887)
Strobe/Lamp Enabled: No (USB4H00887)
Correct for Detector Non-linearity: No (USB4H00887)
Correct for Stray Light: No (USB4H00887)
Number of Pixels in Processed Spectrum: 3648
>>>>>Begin Processed Spectral Data<<<<<
345.83	-0.028
346.05	-0.028
346.26	-0.028
346.48	-0.000
346.70	0.186
346.92	0.151
347.14	0.101
347.35	0.129
347.57	-0.000
347.79	-0.351
348.01	-0.229
348.23	-0.329
348.44	-0.000
348.66	0.292
348.88	-0.369
349.10	-0.064
349.32	0.030
349.53	0.024
349.75	0.112
349.97	0.080
350.19	0.103
350.41	0.081
350.62	-0.059
350.84	-0.003
351.06	0.012
351.28	0.005
351.50	-0.176
351.71	-0.063
351.93	-0.066
352.15	-0.008
352.37	-0.033
352.58	0.003
352.80	0.021
353.02	0.054
353.24	0.077
353.46	0.172
353.67	-0.021
353.89	0.030
354.11	0.029
354.33	0.040
354.54	0.066
354.76	0.152
354.98	0.229
355.20	0.183
355.41	0.081
355.63	0.165
355.85	0.096
356.07	-0.000
356.28	0.086
356.50	0.145
356.72	0.044
356.94	0.101
357.15	0.139
357.37	-0.000
357.59	0.065
357.81	0.031
358.02	0.070
358.24	0.048
358.46	0.114
358.68	0.128
358.89	0.077
359.11	-0.000
359.33	0.075
359.55	-0.458
359.76	0.106
359.98	0.131
360.20	0.131
360.42	0.113
360.63	0.143
360.85	0.110
361.07	0.581
361.29	0.097
361.50	0.342
361.72	0.141
361.94	0.713
362.15	0.222
362.37	0.114
362.59	0.118
362.81	0.188
363.02	0.338
363.24	0.584
363.46	0.309
363.68	0.382
363.89	0.232
364.11	0.311
364.33	0.389
364.54	0.221
364.76	0.259
364.98	0.298
365.20	0.335
365.41	0.184
365.63	0.204
365.85	0.115
366.06	0.290
366.28	0.268
366.50	0.153
366.71	0.079
366.93	0.106
367.15	0.107
367.37	0.081
367.58	0.107
367.80	0.123
368.02	0.331
368.23	0.123
368.45	0.128
368.67	0.109
368.88	0.113
369.10	-0.000
369.32	0.104
369.53	0.060
369.75	0.118
369.97	0.285
370.19	0.168
370.40	0.073
370.62	0.246
370.84	0.108
371.05	0.711
371.27	0.167
371.49	0.193
371.70	0.196
371.92	0.357
372.14	0.129
372.35	0.132
372.57	0.150
372.79	0.374
373.00	0.087
373.22	0.127
373.44	0.117
373.65	0.095
373.87	0.123
374.09	0.448
374.30	0.098
374.52	0.123
374.74	0.094
374.95	0.371
375.17	0.108
375.39	-0.000
375.60	0.111
375.82	0.173
376.04	0.068
376.25	0.100
376.47	0.075
376.68	0.177
376.90	0.094
377.12	0.191
377.33	0.119
377.55	0.245
377.77	0.122
377.98	0.190
378.20	0.126
378.42	0.158
378.63	0.168
378.85	-0.000
379.07	0.115
379.28	0.407
379.50	0.254
379.71	0.138
379.93	0.106
380.15	0.152
380.36	0.224
380.58	0.158
380.80	0.378
381.01	0.143
381.23	0.119
381.44	0.140
381.66	0.184
381.88	0.245
382.09	-0.097
382.31	0.151
382.53	0.148
382.74	0.899
382.96	0.208
383.17	0.171
383.39	0.220
383.61	0.267
383.82	0.181
384.04	0.186
384.25	0.204
384.47	0.192
384.69	0.189
384.90	0.186
385.12	0.403
385.33	0.265
385.55	0.214
385.77	0.350
385.98	0.183
386.20	0.241
386.41	0.208
386.63	0.231
386.85	0.193
387.06	0.251
387.28	0.375
387.49	0.236
387.71	0.161
387.93	0.148
388.14	0.394
388.36	0.187
388.57	0.176
388.79	0.198
389.01	1.551
389.22	0.272
389.44	0.229
389.65	0.186
389.87	0.187
390.08	0.218
390.30	0.162
390.52	0.305
390.73	0.286
390.95	0.195
391.16	0.188
391.38	-0.000
391.59	0.222
391.81	0.191
392.03	0.187
392.24	0.211
392.46	0.192
392.67	0.177
392.89	0.251
393.10	0.416
393.32	0.291
393.53	0.335
393.75	0.207
393.97	0.228
394.18	0.320
394.40	0.275
394.61	0.301
394.83	0.258
395.04	0.311
395.26	0.204
395.47	0.309
395.69	0.257
395.91	0.293
396.12	0.355
396.34	0.357
396.55	0.229
396.77	0.355
396.98	-0.000
397.20	0.418
397.41	0.445
397.63	0.326
397.84	0.289
398.06	0.278
398.27	0.275
398.49	0.321
398.71	0.243
398.92	0.298
399.14	0.391
399.35	0.477
399.57	0.459
399.78	0.323
400.00	0.311
400.21	0.381
400.43	0.298
400.64	0.305
400.86	0.689
401.07	0.376
401.29	0.315
401.50	0.328
401.72	0.469
401.93	0.310
402.15	0.375
402.36	0.341
402.58	0.277
402.79	0.303
403.01	0.508
403.22	0.379
403.44	0.247
403.65	0.385
403.87	0.459
404.08	0.375
404.30	0.587
404.51	0.322
404.73	0.379
404.94	0.333
405.16	0.344
405.37	0.267
405.59	0.499
405.80	0.321
406.02	0.390
406.23	0.367
406.45	0.402
406.66	0.420
406.88	0.280
407.09	0.422
407.31	0.339
407.52	0.412
407.74	0.350
407.95	0.423
408.17	0.398
408.38	0.421
408.60	0.278
408.81	0.463
409.03	0.365
409.24	0.368
409.45	0.430
409.67	0.409
409.88	0.364
410.10	0.451
410.31	0.369
410.53	0.348
410.74	0.505
410.96	0.508
411.17	0.529
411.39	0.392
411.60	0.362
411.82	0.421
412.03	0.417
412.24	0.416
412.46	0.627
412.67	0.504
412.89	0.482
413.10	0.477
413.32	0.419
413.53	0.492
413.75	0.512
413.96	0.388
414.17	0.517
414.39	0.525
414.60	0.432
414.82	0.585
415.03	0.456
415.25	0.511
415.46	0.346
415.68	0.503
415.89	1.006
416.10	0.764
416.32	0.394
416.53	0.472
416.75	0.439
416.96	0.517
417.18	0.436
417.39	0.414
417.60	0.433
417.82	0.629
418.03	0.547
418.25	0.447
418.46	0.474
418.67	0.428
418.89	0.470
419.10	0.496
419.32	0.665
419.53	0.603
419.75	0.502
419.96	0.437
420.17	0.537
420.39	0.505
420.60	0.525
420.82	0.627
421.03	0.505
421.24	0.418
421.46	0.451
421.67	0.491
421.89	0.426
422.10	0.462
422.31	0.450
422.53	0.633
422.74	0.467
422.96	0.379
423.17	0.426
423.38	0.527
423.60	0.445
423.81	0.546
424.03	0.480
424.24	0.532
424.45	0.529
424.67	0.532
424.88	0.475
425.09	0.521
425.31	0.483
425.52	0.505
425.74	0.562
425.95	0.609
426.16	0.486
426.38	0.562
426.59	0.517
426.80	0.587
427.02	0.610
427.23	0.478
427.45	0.614
427.66	0.602
427.87	0.467
428.09	0.494
428.30	0.552
428.51	0.540
428.73	0.602
428.94	0.537
429.15	0.533
429.37	0.516
429.58	0.545
429.79	0.505
430.01	0.596
430.22	0.600
430.44	0.621
430.65	0.559
430.86	0.601
431.08	0.579
431.29	0.520
431.50	0.612
431.72	0.806
431.93	0.659
432.14	0.494
432.36	0.553
432.57	0.562
432.78	0.576
433.00	0.524
433.21	0.517
433.42	0.642
433.64	0.560
433.85	0.625
434.06	0.510
434.28	0.540
434.49	0.563
434.70	0.571
434.92	0.586
435.13	0.645
435.34	0.658
435.56	0.618
435.77	0.617
435.98	0.812
436.20	0.684
436.41	0.592
436.62	0.576
436.83	0.652
437.05	0.735
437.26	0.640
437.47	0.560
437.69	0.609
437.90	0.560
438.11	0.547
438.33	0.595
438.54	0.606
438.75	0.767
438.97	0.760
439.18	0.581
439.39	0.611
439.60	0.653
439.82	0.606
440.03	0.561
440.24	0.808
440.46	0.612
440.67	0.586
440.88	0.628
441.10	0.589
441.31	0.582
441.52	0.625
441.73	0.703
441.95	0.629
442.16	0.594
442.37	0.923
442.58	0.588
442.80	0.577
443.01	0.755
443.22	0.682
443.44	0.582
443.65	0.692
443.86	0.687
444.07	0.728
444.29	0.638
444.50	0.801
444.71	0.609
444.92	0.569
445.14	0.712
445.35	0.757
445.56	0.601
445.78	0.695
445.99	0.688
446.20	0.598
446.41	0.672
446.63	0.666
446.84	0.631
447.05	0.637
447.26	0.764
447.48	0.655
447.69	0.618
447.90	0.713
448.11	0.636
448.33	0.661
448.54	0.682
448.75	0.712
448.96	0.716
449.18	0.764
449.39	0.685
449.60	0.665
449.81	0.800
450.03	0.692
450.24	0.745
450.45	0.709
450.66	0.687
450.87	0.718
451.09	0.676
451.30	0.656
451.51	0.724
451.72	0.731
451.94	0.749
452.15	0.812
452.36	0.682
452.57	0.694
452.78	0.693
453.00	0.738
453.21	0.694
453.42	0.660
453.63	0.759
453.85	0.721
454.06	0.715
454.27	0.838
454.48	0.749
454.69	0.676
454.91	0.744
455.12	0.652
455.33	0.723
455.54	0.739
455.75	0.715
455.97	0.740
456.18	0.732
456.39	0.736
456.60	0.761
456.81	0.705
457.03	0.719
457.24	0.725
457.45	0.810
457.66	0.757
457.87	0.717
458.09	0.736
458.30	0.652
458.51	0.771
458.72	0.796
458.93	0.810
459.15	0.710
459.36	0.773
459.57	0.797
459.78	0.833
459.99	0.741
460.20	0.703
460.42	0.784
460.63	0.741
460.84	0.723
461.05	0.743
461.26	0.793
461.47	0.719
461.69	0.759
461.90	0.786
462.11	0.746
462.32	0.805
462.53	0.753
462.74	0.841
462.96	0.740
463.17	0.729
463.38	0.771
463.59	0.877
463.80	0.736
464.01	0.760
464.23	0.844
464.44	0.810
464.65	0.812
464.86	0.831
465.07	0.839
465.28	0.798
465.49	0.822
465.71	0.773
465.92	0.807
466.13	0.855
466.34	0.797
466.55	0.847
466.76	0.812
466.97	0.833
467.19	0.822
467.40	0.856
467.61	0.860
467.82	0.786
468.03	0.769
468.24	0.840
468.45	0.866
468.66	0.848
468.88	0.857
469.09	0.856
469.30	0.903
469.51	0.832
469.72	0.868
469.93	0.835
470.14	0.810
470.35	0.895
470.57	0.846
470.78	0.794
470.99	0.911
471.20	0.858
471.41	0.822
471.62	0.872
471.83	0.847
472.04	0.879
472.25	0.923
472.47	0.846
472.68	0.852
472.89	0.856
473.10	0.891
473.31	0.844
473.52	0.900
473.73	0.921
473.94	0.848
474.15	0.870
474.36	0.868
474.57	0.894
474.79	0.870
475.00	0.870
475.21	0.857
475.42	0.944
475.63	0.857
475.84	0.886
476.05	0.891
476.26	0.861
476.47	0.893
476.68	0.936
476.89	0.868
477.10	0.913
477.32	0.902
477.53	0.954
477.74	0.878
477.95	0.913
478.16	0.865
478.37	0.911
478.58	0.915
478.79	0.929
479.00	0.929
479.21	0.887
479.42	0.928
479.63	0.934
479.84	0.898
480.05	0.899
480.26	0.926
480.47	0.941
480.69	0.939
480.90	0.909
481.11	0.905
481.32	0.964
481.53	0.910
481.74	0.957
481.95	0.922
482.16	0.935
482.37	0.946
482.58	0.917
482.79	0.936
483.00	0.960
483.21	0.911
483.42	0.886
483.63	0.958
483.84	0.981
484.05	0.976
484.26	0.951
484.47	0.953
484.68	0.911
484.89	0.920
485.10	0.965
485.31	0.947
485.52	0.948
485.73	0.951
485.94	0.990
486.15	0.944
486.37	0.957
486.58	0.920
486.79	0.932
487.00	0.982
487.21	0.972
487.42	0.968
487.63	0.975
487.84	0.992
488.05	0.985
488.26	0.945
488.47	0.949
488.68	0.975
488.89	0.956
489.10	0.951
489.31	0.960
489.52	0.988
489.73	0.955
489.94	0.988
490.15	0.947
490.36	0.985
490.57	0.944
490.78	0.929
490.99	0.967
491.20	1.039
491.41	0.996
491.62	0.943
491.83	0.973
492.04	0.971
492.25	0.979
492.45	0.983
492.66	1.007
492.87	0.991
493.08	0.978
493.29	0.961
493.50	0.951
493.71	0.960
493.92	0.957
494.13	0.971
494.34	0.989
494.55	0.993
494.76	1.018
494.97	1.010
495.18	0.979
495.39	0.994
495.60	0.949
495.81	0.951
496.02	0.970
496.23	0.964
496.44	0.993
496.65	0.982
496.86	0.989
497.07	1.012
497.28	1.004
497.49	0.958
497.70	0.963
497.91	0.982
498.12	0.966
498.32	1.005
498.53	0.988
498.74	0.979
498.95	1.004
499.16	0.963
499.37	0.966
499.58	0.979
499.79	1.007
500.00	0.999
500.21	1.026
500.42	0.975
500.63	0.976
500.84	0.997
501.05	0.976
501.26	1.003
501.46	1.039
501.67	1.002
501.88	1.002
502.09	0.981
502.30	0.989
502.51	1.037
502.72	0.994
502.93	1.012
503.14	1.033
503.35	1.003
503.56	0.997
503.77	1.026
503.97	1.005
504.18	1.005
504.39	1.039
504.60	1.011
504.81	1.036
505.02	1.026
505.23	1.023
505.44	1.005
505.65	1.014
505.86	0.998
506.07	1.060
506.27	1.023
506.48	1.029
506.69	1.010
506.90	1.028
507.11	1.025
507.32	1.002
507.53	1.009
507.74	1.004
507.95	1.015
508.15	1.017
508.36	1.020
508.57	1.031
508.78	1.015
508.99	1.014
509.20	0.993
509.41	1.016
509.62	1.003
509.82	1.002
510.03	1.011
510.24	1.013
510.45	1.038
510.66	1.031
510.87	1.026
511.08	0.989
511.29	1.030
511.49	1.008
511.70	1.053
511.91	0.991
512.12	0.988
512.33	1.021
512.54	1.036
512.75	1.017
512.95	1.041
513.16	1.034
513.37	1.010
513.58	1.045
513.79	1.009
514.00	1.016
514.20	1.032
514.41	1.019
514.62	0.985
514.83	1.023
515.04	1.015
515.25	0.997
515.46	1.008
515.66	1.011
515.87	1.023
516.08	0.993
516.29	1.015
516.50	0.997
516.71	0.992
516.91	1.003
517.12	1.021
517.33	1.006
517.54	0.993
517.75	0.993
517.95	1.005
518.16	1.016
518.37	0.985
518.58	0.990
518.79	0.967
519.00	0.996
519.20	1.004
519.41	0.978
519.62	0.995
519.83	1.004
520.04	0.973
520.24	0.970
520.45	0.977
520.66	0.999
520.87	0.963
521.08	0.960
521.28	0.964
521.49	0.979
521.70	0.951
521.91	0.965
522.12	0.948
522.32	0.968
522.53	0.951
522.74	0.941
522.95	0.950
523.16	0.954
523.36	0.962
523.57	0.944
523.78	0.939
523.99	0.945
524.20	0.940
524.40	0.950
524.61	0.957
524.82	0.933
525.03	0.940
525.23	0.940
525.44	0.925
525.65	0.925
525.86	0.946
526.06	0.919
526.27	0.919
526.48	0.927
526.69	0.912
526.90	0.913
527.10	0.948
527.31	0.903
527.52	0.898
527.73	0.889
527.93	0.899
528.14	0.904
528.35	0.895
528.56	0.896
528.76	0.886
528.97	0.875
529.18	0.868
529.39	0.867
529.59	0.870
529.80	0.897
530.01	0.872
530.22	0.869
530.42	0.840
530.63	0.855
530.84	0.835
531.05	0.849
531.25	0.853
531.46	0.845
531.67	0.825
531.88	0.841
532.08	0.835
532.29	0.831
532.50	0.824
532.70	0.818
532.91	0.808
533.12	0.810
533.33	0.831
533.53	0.803
533.74	0.802
533.95	0.808
534.15	0.797
534.36	0.799
534.57	0.783
534.78	0.785
534.98	0.794
535.19	0.767
535.40	0.767
535.60	0.786
535.81	0.767
536.02	0.769
536.23	0.762
536.43	0.763
536.64	0.749
536.85	0.757
537.05	0.765
537.26	0.743
537.47	0.746
537.67	0.737
537.88	0.731
538.09	0.738
538.30	0.729
538.50	0.719
538.71	0.731
538.92	0.719
539.12	0.714
539.33	0.708
539.54	0.709
539.74	0.713
539.95	0.704
540.16	0.701
540.36	0.692
540.57	0.691
540.78	0.684
540.98	0.683
541.19	0.681
541.40	0.670
541.60	0.681
541.81	0.676
542.02	0.676
542.22	0.667
542.43	0.662
542.64	0.658
542.84	0.659
543.05	0.651
543.26	0.650
543.46	0.651
543.67	0.649
543.88	0.644
544.08	0.634
544.29	0.628
544.50	0.628
544.70	0.628
544.91	0.620
545.12	0.621
545.32	0.617
545.53	0.621
545.74	0.610
545.94	0.607
546.15	0.603
546.35	0.601
546.56	0.598
546.77	0.595
546.97	0.593
547.18	0.585
547.39	0.585
547.59	0.583
547.80	0.579
548.01	0.584
548.21	0.580
548.42	0.573
548.62	0.572
548.83	0.570
549.04	0.566
549.24	0.560
549.45	0.558
549.65	0.555
549.86	0.551
550.07	0.550
550.27	0.548
550.48	0.555
550.69	0.541
550.89	0.541
551.10	0.537
551.30	0.534
551.51	0.534
551.72	0.524
551.92	0.525
552.13	0.525
552.33	0.526
552.54	0.521
552.75	0.514
552.95	0.515
553.16	0.510
553.36	0.508
553.57	0.507
553.78	0.505
553.98	0.506
554.19	0.497
554.39	0.494
554.60	0.496
554.80	0.495
555.01	0.488
555.22	0.489
555.42	0.486
555.63	0.480
555.83	0.484
556.04	0.477
556.25	0.479
556.45	0.471
556.66	0.469
556.86	0.472
557.07	0.470
557.27	0.468
557.48	0.463
557.68	0.461
557.89	0.462
558.10	0.458
558.30	0.455
558.51	0.453
558.71	0.451
558.92	0.446
559.12	0.448
559.33	0.452
559.54	0.446
559.74	0.442
559.95	0.439
560.15	0.439
560.36	0.437
560.56	0.433
560.77	0.433
560.97	0.433
561.18	0.428
561.38	0.427
561.59	0.429
561.79	0.425
562.00	0.423
562.21	0.420
562.41	0.418
562.62	0.417
562.82	0.414
563.03	0.411
563.23	0.410
563.44	0.410
563.64	0.407
563.85	0.409
564.05	0.402
564.26	0.402
564.46	0.401
564.67	0.402
564.87	0.398
565.08	0.395
565.28	0.395
565.49	0.395
565.69	0.393
565.90	0.390
566.10	0.392
566.31	0.386
566.51	0.388
566.72	0.389
566.92	0.383
567.13	0.382
567.33	0.381
567.54	0.380
567.74	0.379
567.95	0.375
568.15	0.376
568.36	0.375
568.56	0.373
568.77	0.368
568.97	0.367
569.18	0.366
569.38	0.365
569.59	0.365
569.79	0.362
570.00	0.359
570.20	0.358
570.41	0.357
570.61	0.356
570.82	0.357
571.02	0.353
571.23	0.355
571.43	0.350
571.64	0.349
571.84	0.349
572.05	0.348
572.25	0.347
572.45	0.345
572.66	0.342
572.86	0.341
573.07	0.339
573.27	0.339
573.48	0.339
573.68	0.335
573.89	0.335
574.09	0.335
574.30	0.334
574.50	0.332
574.70	0.333
574.91	0.330
575.11	0.331
575.32	0.330
575.52	0.326
575.73	0.326
575.93	0.326
576.14	0.324
576.34	0.322
576.54	0.321
576.75	0.319
576.95	0.319
577.16	0.317
577.36	0.315
577.57	0.315
577.77	0.313
577.97	0.311
578.18	0.313
578.38	0.309
578.59	0.308
578.79	0.306
579.00	0.307
579.20	0.305
579.40	0.304
579.61	0.304
579.81	0.302
580.02	0.300
580.22	0.299
580.42	0.298
580.63	0.298
580.83	0.297
581.04	0.295
581.24	0.294
581.45	0.293
581.65	0.293
581.85	0.292
582.06	0.290
582.26	0.290
582.47	0.289
582.67	0.288
582.87	0.287
583.08	0.285
583.28	0.285
583.48	0.284
583.69	0.281
583.89	0.281
584.10	0.282
584.30	0.280
584.50	0.278
584.71	0.278
584.91	0.277
585.12	0.276
585.32	0.277
585.52	0.274
585.73	0.273
585.93	0.272
586.13	0.272
586.34	0.271
586.54	0.270
586.75	0.268
586.95	0.267
587.15	0.267
587.36	0.266
587.56	0.265
587.76	0.263
587.97	0.263
588.17	0.262
588.37	0.261
588.58	0.261
588.78	0.258
588.98	0.259
589.19	0.259
589.39	0.256
589.60	0.259
589.80	0.256
590.00	0.255
590.21	0.255
590.41	0.253
590.61	0.253
590.82	0.253
591.02	0.253
591.22	0.251
591.43	0.252
591.63	0.250
591.83	0.249
592.04	0.248
592.24	0.248
592.44	0.246
592.65	0.245
592.85	0.245
593.05	0.245
593.26	0.243
593.46	0.242
593.66	0.242
593.86	0.241
594.07	0.239
594.27	0.239
594.47	0.238
594.68	0.237
594.88	0.238
595.08	0.237
595.29	0.237
595.49	0.235
595.69	0.235
595.90	0.235
596.10	0.235
596.30	0.234
596.50	0.233
596.71	0.233
596.91	0.232
597.11	0.231
597.32	0.231
597.52	0.230
597.72	0.229
597.93	0.229
598.13	0.227
598.33	0.227
598.53	0.226
598.74	0.226
598.94	0.225
599.14	0.225
599.35	0.225
599.55	0.225
599.75	0.224
599.95	0.223
600.16	0.224
600.36	0.222
600.56	0.222
600.76	0.221
600.97	0.220
601.17	0.219
601.37	0.219
601.58	0.218
601.78	0.217
601.98	0.216
602.18	0.215
602.39	0.215
602.59	0.215
602.79	0.213
602.99	0.213
603.20	0.212
603.40	0.212
603.60	0.212
603.80	0.212
604.01	0.212
604.21	0.211
604.41	0.211
604.61	0.210
604.82	0.209
605.02	0.209
605.22	0.208
605.42	0.208
605.62	0.208
605.83	0.207
606.03	0.206
606.23	0.206
606.43	0.206
606.64	0.206
606.84	0.206
607.04	0.205
607.24	0.206
607.45	0.205
607.65	0.204
607.85	0.205
608.05	0.203
608.25	0.203
608.46	0.202
608.66	0.202
608.86	0.201
609.06	0.200
609.26	0.199
609.47	0.200
609.67	0.199
609.87	0.200
610.07	0.199
610.28	0.198
610.48	0.198
610.68	0.198
610.88	0.196
611.08	0.197
611.29	0.195
611.49	0.195
611.69	0.195
611.89	0.193
612.09	0.193
612.29	0.192
612.50	0.193
612.70	0.193
612.90	0.192
613.10	0.191
613.30	0.191
613.51	0.191
613.71	0.191
613.91	0.195
614.11	0.190
614.31	0.190
614.51	0.189
614.72	0.188
614.92	0.188
615.12	0.187
615.32	0.188
615.52	0.187
615.72	0.187
615.93	0.187
616.13	0.186
616.33	0.186
616.53	0.186
616.73	0.186
616.93	0.185
617.14	0.185
617.34	0.185
617.54	0.185
617.74	0.185
617.94	0.184
618.14	0.183
618.34	0.183
618.55	0.182
618.75	0.183
618.95	0.183
619.15	0.183
619.35	0.182
619.55	0.181
619.75	0.182
619.96	0.181
620.16	0.181
620.36	0.181
620.56	0.180
620.76	0.179
620.96	0.179
621.16	0.178
621.36	0.178
621.57	0.178
621.77	0.178
621.97	0.177
622.17	0.177
622.37	0.177
622.57	0.177
622.77	0.176
622.97	0.176
623.18	0.176
623.38	0.176
623.58	0.176
623.78	0.175
623.98	0.174
624.18	0.174
624.38	0.173
624.58	0.173
624.78	0.173
624.98	0.173
625.19	0.172
625.39	0.173
625.59	0.172
625.79	0.172
625.99	0.172
626.19	0.172
626.39	0.172
626.59	0.172
626.79	0.172
626.99	0.172
627.19	0.172
627.40	0.172
627.60	0.171
627.80	0.171
628.00	0.171
628.20	0.170
628.40	0.170
628.60	0.170
628.80	0.169
629.00	0.169
629.20	0.168
629.40	0.169
629.60	0.168
629.80	0.168
630.00	0.168
630.20	0.167
630.41	0.167
630.61	0.167
630.81	0.167
631.01	0.167
631.21	0.166
631.41	0.165
631.61	0.166
631.81	0.165
632.01	0.164
632.21	0.165
632.41	0.163
632.61	0.163
632.81	0.163
633.01	0.164
633.21	0.163
633.41	0.164
633.61	0.163
633.81	0.162
634.01	0.162
634.21	0.162
634.41	0.161
634.61	0.162
634.81	0.161
635.01	0.161
635.22	0.161
