SpectraSuite Data File
++++++++++++++++++++++++++++++++++++
Date: Mon May 20 12:10:56 CDT 2013
User: Students
Dark Spectrum Present: Yes
Reference Spectrum Present: Yes
Number of Sampled Component Spectra: 1
Spectrometers: USB4H00887
Integration Time (usec): 60000 (USB4H00887)
Spectra Averaged: 5 (USB4H00887)
Boxcar Smoothing: 5 (USB4H00887)
Correct for Electrical Dark: No (USB4H00887)
Strobe/Lamp Enabled: No (USB4H00887)
Correct for Detector Non-linearity: No (USB4H00887)
Correct for Stray Light: No (USB4H00887)
Number of Pixels in Processed Spectrum: 3648
>>>>>Begin Processed Spectral Data<<<<<
345.83	-0.089
346.05	-0.089
346.26	-0.089
346.48	-0.000
346.70	0.372
346.92	0.013
347.14	0.032
347.35	0.028
347.57	0.136
347.79	-0.140
348.01	-0.124
348.23	-0.219
348.44	-0.000
348.66	0.207
348.88	-0.348
349.10	-0.058
349.32	0.043
349.53	-0.003
349.75	-0.011
349.97	0.012
350.19	0.039
350.41	0.007
350.62	-0.019
350.84	0.004
351.06	0.014
351.28	-0.012
351.50	-0.202
351.71	-0.151
351.93	-0.097
352.15	-0.025
352.37	-0.120
352.58	-0.020
352.80	0.013
353.02	0.040
353.24	0.051
353.46	0.120
353.67	-0.098
353.89	0.033
354.11	0.037
354.33	0.040
354.54	0.099
354.76	0.147
354.98	0.238
355.20	0.179
355.41	0.084
355.63	0.169
355.85	0.070
356.07	0.797
356.28	0.079
356.50	0.115
356.72	0.044
356.94	0.057
357.15	0.101
357.37	-0.000
357.59	0.053
357.81	0.009
358.02	0.033
358.24	0.045
358.46	0.097
358.68	0.109
358.89	0.076
359.11	-0.000
359.33	0.083
359.55	-0.593
359.76	0.126
359.98	0.148
360.20	0.138
360.42	0.105
360.63	0.109
360.85	0.054
361.07	0.170
361.29	0.037
361.50	0.128
361.72	0.063
361.94	0.152
362.15	0.060
362.37	0.044
362.59	0.065
362.81	0.110
363.02	0.182
363.24	0.369
363.46	0.205
363.68	0.281
363.89	0.164
364.11	0.214
364.33	0.324
364.54	0.202
364.76	0.240
364.98	0.223
365.20	0.266
365.41	0.179
365.63	0.209
365.85	0.142
366.06	0.375
366.28	0.448
366.50	0.280
366.71	0.090
366.93	0.115
367.15	0.094
367.37	0.091
367.58	0.121
367.80	0.133
368.02	0.331
368.23	0.123
368.45	0.138
368.67	0.107
368.88	0.103
369.10	-0.000
369.32	0.127
369.53	0.085
369.75	0.133
369.97	0.356
370.19	0.193
370.40	0.077
370.62	0.238
370.84	0.104
371.05	0.636
371.27	0.157
371.49	0.188
371.70	0.195
371.92	0.289
372.14	0.126
372.35	0.122
372.57	0.155
372.79	0.414
373.00	0.096
373.22	0.124
373.44	0.133
373.65	0.106
373.87	0.147
374.09	0.652
374.30	0.120
374.52	0.145
374.74	0.100
374.95	0.396
375.17	0.117
375.39	-0.000
375.60	0.135
375.82	0.270
376.04	0.110
376.25	0.125
376.47	0.079
376.68	0.213
376.90	0.123
377.12	0.307
377.33	0.141
377.55	0.381
377.77	0.201
377.98	0.280
378.20	0.139
378.42	0.171
378.63	0.209
378.85	-0.000
379.07	0.137
379.28	0.478
379.50	0.268
379.71	0.152
379.93	0.104
380.15	0.141
380.36	0.216
380.58	0.145
380.80	0.387
381.01	0.145
381.23	0.130
381.44	0.126
381.66	0.144
381.88	0.190
382.09	-0.083
382.31	0.118
382.53	0.130
382.74	0.650
382.96	0.185
383.17	0.165
383.39	0.212
383.61	0.258
383.82	0.198
384.04	0.239
384.25	0.277
384.47	0.261
384.69	0.257
384.90	0.224
385.12	0.466
385.33	0.297
385.55	0.219
385.77	0.348
385.98	0.177
386.20	0.232
386.41	0.191
386.63	0.223
386.85	0.196
387.06	0.238
387.28	0.399
387.49	0.276
387.71	0.189
387.93	0.162
388.14	0.458
388.36	0.201
388.57	0.182
388.79	0.210
389.01	-0.000
389.22	0.295
389.44	0.257
389.65	0.204
389.87	0.200
390.08	0.240
390.30	0.187
390.52	0.352
390.73	0.358
390.95	0.258
391.16	0.251
391.38	-0.000
391.59	0.248
391.81	0.209
392.03	0.190
392.24	0.219
392.46	0.194
392.67	0.174
392.89	0.245
393.10	0.385
393.32	0.261
393.53	0.307
393.75	0.207
393.97	0.230
394.18	0.318
394.40	0.276
394.61	0.289
394.83	0.246
395.04	0.293
395.26	0.194
395.47	0.283
395.69	0.236
395.91	0.241
396.12	0.296
396.34	0.298
396.55	0.196
396.77	0.295
396.98	1.062
397.20	0.374
397.41	0.412
397.63	0.304
397.84	0.263
398.06	0.252
398.27	0.263
398.49	0.297
398.71	0.217
398.92	0.261
399.14	0.337
399.35	0.415
399.57	0.375
399.78	0.261
400.00	0.242
400.21	0.314
400.43	0.250
400.64	0.255
400.86	0.545
401.07	0.334
401.29	0.290
401.50	0.305
401.72	0.442
401.93	0.280
402.15	0.333
402.36	0.306
402.58	0.262
402.79	0.282
403.01	0.455
403.22	0.346
403.44	0.227
403.65	0.348
403.87	0.385
404.08	0.320
404.30	0.515
404.51	0.296
404.73	0.346
404.94	0.288
405.16	0.310
405.37	0.252
405.59	0.435
405.80	0.282
406.02	0.346
406.23	0.342
406.45	0.355
406.66	0.356
406.88	0.246
407.09	0.364
407.31	0.300
407.52	0.366
407.74	0.299
407.95	0.361
408.17	0.337
408.38	0.345
408.60	0.234
408.81	0.393
409.03	0.307
409.24	0.300
409.45	0.358
409.67	0.349
409.88	0.308
410.10	0.403
410.31	0.328
410.53	0.311
410.74	0.448
410.96	0.432
411.17	0.441
411.39	0.350
411.60	0.323
411.82	0.363
412.03	0.340
412.24	0.330
412.46	0.460
412.67	0.388
412.89	0.385
413.10	0.373
413.32	0.344
413.53	0.407
413.75	0.425
413.96	0.337
414.17	0.449
414.39	0.467
414.60	0.384
414.82	0.494
415.03	0.388
415.25	0.426
415.46	0.300
415.68	0.422
415.89	0.703
416.10	0.592
416.32	0.338
416.53	0.395
416.75	0.369
416.96	0.436
417.18	0.379
417.39	0.369
417.60	0.365
417.82	0.508
418.03	0.447
418.25	0.382
418.46	0.393
418.67	0.364
418.89	0.388
419.10	0.401
419.32	0.528
419.53	0.480
419.75	0.414
419.96	0.374
420.17	0.446
420.39	0.428
420.60	0.445
420.82	0.525
421.03	0.426
421.24	0.362
421.46	0.398
421.67	0.431
421.89	0.388
422.10	0.421
422.31	0.416
422.53	0.579
422.74	0.440
422.96	0.353
423.17	0.392
423.38	0.470
423.60	0.404
423.81	0.489
424.03	0.420
424.24	0.451
424.45	0.444
424.67	0.443
424.88	0.409
425.09	0.432
425.31	0.403
425.52	0.427
425.74	0.479
425.95	0.510
426.16	0.407
426.38	0.470
426.59	0.439
426.80	0.496
427.02	0.513
427.23	0.407
427.45	0.521
427.66	0.514
427.87	0.411
428.09	0.436
428.30	0.482
428.51	0.474
428.73	0.511
428.94	0.452
429.15	0.443
429.37	0.430
429.58	0.453
429.79	0.421
430.01	0.489
430.22	0.477
430.44	0.484
430.65	0.437
430.86	0.471
431.08	0.458
431.29	0.426
431.50	0.488
431.72	0.605
431.93	0.510
432.14	0.401
432.36	0.433
432.57	0.443
432.78	0.454
433.00	0.428
433.21	0.424
433.42	0.516
433.64	0.463
433.85	0.511
434.06	0.430
434.28	0.448
434.49	0.460
434.70	0.470
434.92	0.481
435.13	0.510
435.34	0.511
435.56	0.486
435.77	0.482
435.98	0.589
436.20	0.518
436.41	0.455
436.62	0.451
436.83	0.508
437.05	0.557
437.26	0.505
437.47	0.464
437.69	0.506
437.90	0.470
438.11	0.463
438.33	0.502
438.54	0.519
438.75	0.643
438.97	0.634
439.18	0.489
439.39	0.513
439.60	0.537
439.82	0.503
440.03	0.465
440.24	0.627
440.46	0.498
440.67	0.477
440.88	0.503
441.10	0.476
441.31	0.473
441.52	0.512
441.73	0.561
441.95	0.514
442.16	0.481
442.37	0.694
442.58	0.480
442.80	0.471
443.01	0.589
443.22	0.551
443.44	0.481
443.65	0.554
443.86	0.549
444.07	0.580
444.29	0.516
444.50	0.632
444.71	0.503
444.92	0.478
445.14	0.586
445.35	0.617
445.56	0.507
445.78	0.578
445.99	0.575
446.20	0.503
446.41	0.555
446.63	0.562
446.84	0.536
447.05	0.538
447.26	0.623
447.48	0.544
447.69	0.519
447.90	0.572
448.11	0.523
448.33	0.544
448.54	0.567
448.75	0.589
448.96	0.594
449.18	0.610
449.39	0.558
449.60	0.548
449.81	0.633
450.03	0.563
450.24	0.600
450.45	0.570
450.66	0.558
450.87	0.577
451.09	0.547
451.30	0.532
451.51	0.578
451.72	0.584
451.94	0.590
452.15	0.642
452.36	0.556
452.57	0.569
452.78	0.574
453.00	0.598
453.21	0.565
453.42	0.545
453.63	0.609
453.85	0.593
454.06	0.591
454.27	0.673
454.48	0.609
454.69	0.562
454.91	0.611
455.12	0.540
455.33	0.595
455.54	0.608
455.75	0.592
455.97	0.607
456.18	0.602
456.39	0.605
456.60	0.625
456.81	0.589
457.03	0.598
457.24	0.593
457.45	0.651
457.66	0.612
457.87	0.584
458.09	0.596
458.30	0.539
458.51	0.619
458.72	0.635
458.93	0.641
459.15	0.579
459.36	0.617
459.57	0.635
459.78	0.668
459.99	0.614
460.20	0.591
460.42	0.648
460.63	0.622
460.84	0.608
461.05	0.622
461.26	0.659
461.47	0.607
461.69	0.645
461.90	0.671
462.11	0.643
462.32	0.679
462.53	0.639
462.74	0.696
462.96	0.619
463.17	0.616
463.38	0.641
463.59	0.716
463.80	0.615
464.01	0.625
464.23	0.675
464.44	0.650
464.65	0.656
464.86	0.668
465.07	0.673
465.28	0.651
465.49	0.665
465.71	0.637
465.92	0.659
466.13	0.691
466.34	0.651
466.55	0.687
466.76	0.662
466.97	0.674
467.19	0.669
467.40	0.693
467.61	0.696
467.82	0.643
468.03	0.636
468.24	0.675
468.45	0.696
468.66	0.690
468.88	0.697
469.09	0.699
469.30	0.729
469.51	0.684
469.72	0.711
469.93	0.693
470.14	0.681
470.35	0.730
470.57	0.704
470.78	0.666
470.99	0.744
471.20	0.707
471.41	0.682
471.62	0.714
471.83	0.699
472.04	0.716
472.25	0.743
472.47	0.693
472.68	0.698
472.89	0.703
473.10	0.730
473.31	0.700
473.52	0.733
473.73	0.747
473.94	0.698
474.15	0.712
474.36	0.711
474.57	0.726
474.79	0.710
475.00	0.711
475.21	0.700
475.42	0.752
475.63	0.695
475.84	0.716
476.05	0.720
476.26	0.706
476.47	0.726
476.68	0.754
476.89	0.712
477.10	0.745
477.32	0.737
477.53	0.771
477.74	0.724
477.95	0.748
478.16	0.717
478.37	0.743
478.58	0.742
478.79	0.751
479.00	0.752
479.21	0.728
479.42	0.751
479.63	0.757
479.84	0.733
480.05	0.732
480.26	0.751
480.47	0.762
480.69	0.763
480.90	0.742
481.11	0.743
481.32	0.779
481.53	0.746
481.74	0.777
481.95	0.755
482.16	0.769
482.37	0.774
482.58	0.754
482.79	0.766
483.00	0.783
483.21	0.752
483.42	0.734
483.63	0.780
483.84	0.793
484.05	0.787
484.26	0.772
484.47	0.770
484.68	0.747
484.89	0.751
485.10	0.778
485.31	0.767
485.52	0.770
485.73	0.771
485.94	0.792
486.15	0.762
486.37	0.771
486.58	0.750
486.79	0.756
487.00	0.786
487.21	0.782
487.42	0.779
487.63	0.783
487.84	0.794
488.05	0.793
488.26	0.770
488.47	0.775
488.68	0.793
488.89	0.778
489.10	0.774
489.31	0.783
489.52	0.802
489.73	0.784
489.94	0.802
490.15	0.777
490.36	0.802
490.57	0.776
490.78	0.767
490.99	0.791
491.20	0.833
491.41	0.810
491.62	0.775
491.83	0.792
492.04	0.790
492.25	0.795
492.45	0.795
492.66	0.808
492.87	0.801
493.08	0.792
493.29	0.781
493.50	0.777
493.71	0.782
493.92	0.780
494.13	0.790
494.34	0.801
494.55	0.805
494.76	0.823
494.97	0.818
495.18	0.797
495.39	0.808
495.60	0.780
495.81	0.782
496.02	0.794
496.23	0.789
496.44	0.806
496.65	0.801
496.86	0.805
497.07	0.821
497.28	0.817
497.49	0.788
497.70	0.789
497.91	0.800
498.12	0.790
498.32	0.817
498.53	0.809
498.74	0.805
498.95	0.821
499.16	0.795
499.37	0.796
499.58	0.804
499.79	0.822
500.00	0.818
500.21	0.835
500.42	0.801
500.63	0.799
500.84	0.810
501.05	0.797
501.26	0.811
501.46	0.833
501.67	0.812
501.88	0.812
502.09	0.796
502.30	0.802
502.51	0.831
502.72	0.807
502.93	0.816
503.14	0.828
503.35	0.812
503.56	0.810
503.77	0.828
503.97	0.815
504.18	0.815
504.39	0.837
504.60	0.818
504.81	0.834
505.02	0.825
505.23	0.828
505.44	0.818
505.65	0.820
505.86	0.811
506.07	0.849
506.27	0.827
506.48	0.830
506.69	0.821
506.90	0.834
507.11	0.832
507.32	0.818
507.53	0.824
507.74	0.818
507.95	0.827
508.15	0.829
508.36	0.831
508.57	0.837
508.78	0.830
508.99	0.831
509.20	0.815
509.41	0.828
509.62	0.822
509.82	0.822
510.03	0.827
510.24	0.828
510.45	0.839
510.66	0.832
510.87	0.829
511.08	0.805
511.29	0.827
511.49	0.815
511.70	0.842
511.91	0.804
512.12	0.801
512.33	0.821
512.54	0.830
512.75	0.822
512.95	0.838
513.16	0.833
513.37	0.818
513.58	0.839
513.79	0.820
514.00	0.825
514.20	0.833
514.41	0.827
514.62	0.809
514.83	0.830
515.04	0.825
515.25	0.814
515.46	0.821
515.66	0.822
515.87	0.830
516.08	0.810
516.29	0.824
516.50	0.814
516.71	0.810
516.91	0.814
517.12	0.825
517.33	0.817
517.54	0.808
517.75	0.810
517.95	0.818
518.16	0.824
518.37	0.805
518.58	0.808
518.79	0.792
519.00	0.810
519.20	0.815
519.41	0.798
519.62	0.810
519.83	0.815
520.04	0.794
520.24	0.791
520.45	0.797
520.66	0.809
520.87	0.788
521.08	0.787
521.28	0.788
521.49	0.798
521.70	0.782
521.91	0.789
522.12	0.778
522.32	0.790
522.53	0.779
522.74	0.771
522.95	0.778
523.16	0.778
523.36	0.783
523.57	0.772
523.78	0.768
523.99	0.769
524.20	0.765
524.40	0.771
524.61	0.775
524.82	0.760
525.03	0.763
525.23	0.762
525.44	0.752
525.65	0.751
525.86	0.764
526.06	0.747
526.27	0.748
526.48	0.753
526.69	0.743
526.90	0.745
527.10	0.767
527.31	0.738
527.52	0.734
527.73	0.730
527.93	0.737
528.14	0.740
528.35	0.734
528.56	0.734
528.76	0.730
528.97	0.722
529.18	0.717
529.39	0.716
529.59	0.718
529.80	0.737
530.01	0.719
530.22	0.718
530.42	0.698
530.63	0.708
530.84	0.694
531.05	0.702
531.25	0.705
531.46	0.699
531.67	0.685
531.88	0.697
532.08	0.692
532.29	0.689
532.50	0.684
532.70	0.680
532.91	0.674
533.12	0.675
533.33	0.690
533.53	0.671
533.74	0.670
533.95	0.674
534.15	0.666
534.36	0.667
534.57	0.655
534.78	0.655
534.98	0.661
535.19	0.642
535.40	0.642
535.60	0.654
535.81	0.641
536.02	0.642
536.23	0.636
536.43	0.638
536.64	0.628
536.85	0.634
537.05	0.640
537.26	0.626
537.47	0.628
537.67	0.620
537.88	0.617
538.09	0.622
538.30	0.615
538.50	0.609
538.71	0.616
538.92	0.608
539.12	0.605
539.33	0.602
539.54	0.602
539.74	0.604
539.95	0.598
540.16	0.595
540.36	0.589
540.57	0.589
540.78	0.584
540.98	0.583
541.19	0.581
541.40	0.573
541.60	0.580
541.81	0.576
542.02	0.576
542.22	0.569
542.43	0.566
542.64	0.563
542.84	0.563
543.05	0.557
543.26	0.557
543.46	0.559
543.67	0.558
543.88	0.555
544.08	0.548
544.29	0.543
544.50	0.544
544.70	0.544
544.91	0.538
545.12	0.538
545.32	0.534
545.53	0.537
545.74	0.529
545.94	0.526
546.15	0.524
546.35	0.522
546.56	0.519
546.77	0.518
546.97	0.516
547.18	0.510
547.39	0.511
547.59	0.510
547.80	0.507
548.01	0.510
548.21	0.507
548.42	0.501
548.62	0.500
548.83	0.498
549.04	0.496
549.24	0.490
549.45	0.490
549.65	0.487
549.86	0.483
550.07	0.482
550.27	0.481
550.48	0.487
550.69	0.476
550.89	0.476
551.10	0.473
551.30	0.471
551.51	0.472
551.72	0.463
551.92	0.465
552.13	0.465
552.33	0.465
552.54	0.461
552.75	0.455
552.95	0.457
553.16	0.453
553.36	0.452
553.57	0.451
553.78	0.449
553.98	0.449
554.19	0.442
554.39	0.439
554.60	0.442
554.80	0.442
555.01	0.436
555.22	0.439
555.42	0.436
555.63	0.431
555.83	0.435
556.04	0.430
556.25	0.433
556.45	0.426
556.66	0.425
556.86	0.427
557.07	0.425
557.27	0.425
557.48	0.420
557.68	0.419
557.89	0.419
558.10	0.416
558.30	0.413
558.51	0.412
558.71	0.410
558.92	0.406
559.12	0.408
559.33	0.411
559.54	0.407
559.74	0.404
559.95	0.402
560.15	0.402
560.36	0.400
560.56	0.396
560.77	0.396
560.97	0.396
561.18	0.392
561.38	0.390
561.59	0.392
561.79	0.389
562.00	0.387
562.21	0.385
562.41	0.384
562.62	0.383
562.82	0.382
563.03	0.379
563.23	0.379
563.44	0.379
563.64	0.376
563.85	0.378
564.05	0.372
564.26	0.372
564.46	0.372
564.67	0.373
564.87	0.369
565.08	0.367
565.28	0.367
565.49	0.368
565.69	0.366
565.90	0.363
566.10	0.366
566.31	0.360
566.51	0.362
566.72	0.363
566.92	0.358
567.13	0.357
567.33	0.356
567.54	0.356
567.74	0.355
567.95	0.351
568.15	0.352
568.36	0.352
568.56	0.351
568.77	0.347
568.97	0.345
569.18	0.345
569.38	0.345
569.59	0.345
569.79	0.343
570.00	0.341
570.20	0.340
570.41	0.339
570.61	0.337
570.82	0.339
571.02	0.335
571.23	0.337
571.43	0.333
571.64	0.332
571.84	0.332
572.05	0.330
572.25	0.330
572.45	0.329
572.66	0.326
572.86	0.326
573.07	0.324
573.27	0.324
573.48	0.324
573.68	0.320
573.89	0.319
574.09	0.320
574.30	0.319
574.50	0.317
574.70	0.318
574.91	0.316
575.11	0.316
575.32	0.316
575.52	0.313
575.73	0.313
575.93	0.313
576.14	0.312
576.34	0.311
576.54	0.310
576.75	0.308
576.95	0.307
577.16	0.305
577.36	0.304
577.57	0.304
577.77	0.302
577.97	0.300
578.18	0.302
578.38	0.298
578.59	0.297
578.79	0.295
579.00	0.296
579.20	0.296
579.40	0.295
579.61	0.295
579.81	0.294
580.02	0.292
580.22	0.291
580.42	0.290
580.63	0.290
580.83	0.289
581.04	0.288
581.24	0.287
581.45	0.286
581.65	0.285
581.85	0.285
582.06	0.283
582.26	0.283
582.47	0.282
582.67	0.282
582.87	0.281
583.08	0.280
583.28	0.280
583.48	0.279
583.69	0.276
583.89	0.277
584.10	0.278
584.30	0.276
584.50	0.275
584.71	0.275
584.91	0.274
585.12	0.272
585.32	0.273
585.52	0.271
585.73	0.270
585.93	0.270
586.13	0.269
586.34	0.268
586.54	0.267
586.75	0.266
586.95	0.265
587.15	0.265
587.36	0.265
587.56	0.264
587.76	0.263
587.97	0.263
588.17	0.261
588.37	0.261
588.58	0.262
588.78	0.259
588.98	0.260
589.19	0.259
589.39	0.257
589.60	0.259
589.80	0.256
590.00	0.255
590.21	0.255
590.41	0.254
590.61	0.254
590.82	0.253
591.02	0.253
591.22	0.251
591.43	0.252
591.63	0.251
591.83	0.250
592.04	0.249
592.24	0.250
592.44	0.248
592.65	0.246
592.85	0.247
593.05	0.247
593.26	0.246
593.46	0.245
593.66	0.246
593.86	0.244
594.07	0.242
594.27	0.242
594.47	0.241
594.68	0.240
594.88	0.241
595.08	0.241
595.29	0.241
595.49	0.239
595.69	0.238
595.90	0.237
596.10	0.238
596.30	0.238
596.50	0.237
596.71	0.237
596.91	0.236
597.11	0.236
597.32	0.236
597.52	0.235
597.72	0.234
597.93	0.234
598.13	0.233
598.33	0.233
598.53	0.232
598.74	0.232
598.94	0.231
599.14	0.231
599.35	0.231
599.55	0.230
599.75	0.229
599.95	0.229
600.16	0.229
600.36	0.227
600.56	0.228
600.76	0.227
600.97	0.225
601.17	0.225
601.37	0.225
601.58	0.224
601.78	0.224
601.98	0.223
602.18	0.222
602.39	0.222
602.59	0.222
602.79	0.221
602.99	0.221
603.20	0.220
603.40	0.220
603.60	0.219
603.80	0.219
604.01	0.219
604.21	0.218
604.41	0.217
604.61	0.216
604.82	0.216
605.02	0.216
605.22	0.216
605.42	0.216
605.62	0.216
605.83	0.215
606.03	0.214
606.23	0.215
606.43	0.214
606.64	0.214
606.84	0.213
607.04	0.213
607.24	0.213
607.45	0.213
607.65	0.212
607.85	0.213
608.05	0.211
608.25	0.210
608.46	0.210
608.66	0.210
608.86	0.209
609.06	0.208
609.26	0.207
609.47	0.208
609.67	0.206
609.87	0.207
610.07	0.207
610.28	0.206
610.48	0.206
610.68	0.206
610.88	0.205
611.08	0.206
611.29	0.204
611.49	0.204
611.69	0.204
611.89	0.202
612.09	0.202
612.29	0.202
612.50	0.201
612.70	0.201
612.90	0.200
613.10	0.200
613.30	0.199
613.51	0.199
613.71	0.199
613.91	0.203
614.11	0.199
614.31	0.198
614.51	0.198
614.72	0.198
614.92	0.198
615.12	0.197
615.32	0.198
615.52	0.198
615.72	0.198
615.93	0.198
616.13	0.197
616.33	0.197
616.53	0.197
616.73	0.197
616.93	0.195
617.14	0.196
617.34	0.196
617.54	0.195
617.74	0.196
617.94	0.195
618.14	0.194
618.34	0.194
618.55	0.193
618.75	0.193
618.95	0.194
619.15	0.194
619.35	0.192
619.55	0.191
619.75	0.192
619.96	0.190
620.16	0.191
620.36	0.191
620.56	0.190
620.76	0.190
620.96	0.189
621.16	0.189
621.36	0.189
621.57	0.189
621.77	0.190
621.97	0.189
622.17	0.188
622.37	0.188
622.57	0.188
622.77	0.188
622.97	0.187
623.18	0.187
623.38	0.187
623.58	0.186
623.78	0.186
623.98	0.185
624.18	0.184
624.38	0.184
624.58	0.184
624.78	0.185
624.98	0.185
625.19	0.184
625.39	0.184
625.59	0.184
625.79	0.185
625.99	0.184
626.19	0.184
626.39	0.184
626.59	0.184
626.79	0.183
626.99	0.183
627.19	0.183
627.40	0.183
627.60	0.183
627.80	0.183
628.00	0.182
628.20	0.182
628.40	0.182
628.60	0.182
628.80	0.181
629.00	0.181
629.20	0.180
629.40	0.180
629.60	0.179
629.80	0.179
630.00	0.179
630.20	0.179
630.41	0.178
630.61	0.178
630.81	0.178
631.01	0.178
631.21	0.177
631.41	0.177
631.61	0.177
631.81	0.176
632.01	0.176
632.21	0.176
632.41	0.175
632.61	0.175
632.81	0.175
633.01	0.176
633.21	0.175
633.41	0.176
633.61	0.175
633.81	0.175
634.01	0.174
634.21	0.174
634.41	0.174
634.61	0.174
634.81	0.173
635.01	0.173
635.22	0.173
