SpectraSuite Data File
++++++++++++++++++++++++++++++++++++
Date: Mon May 20 12:12:12 CDT 2013
User: Students
Dark Spectrum Present: Yes
Reference Spectrum Present: Yes
Number of Sampled Component Spectra: 1
Spectrometers: USB4H00887
Integration Time (usec): 60000 (USB4H00887)
Spectra Averaged: 5 (USB4H00887)
Boxcar Smoothing: 5 (USB4H00887)
Correct for Electrical Dark: No (USB4H00887)
Strobe/Lamp Enabled: No (USB4H00887)
Correct for Detector Non-linearity: No (USB4H00887)
Correct for Stray Light: No (USB4H00887)
Number of Pixels in Processed Spectrum: 3648
>>>>>Begin Processed Spectral Data<<<<<
345.83	-0.222
346.05	-0.222
346.26	-0.222
346.48	-0.000
346.70	0.615
346.92	0.152
347.14	0.093
347.35	0.079
347.57	0.616
347.79	-0.313
348.01	-0.214
348.23	-0.292
348.44	-0.000
348.66	0.266
348.88	-0.340
349.10	-0.120
349.32	0.087
349.53	-0.012
349.75	-0.006
349.97	0.004
350.19	0.071
350.41	0.091
350.62	-0.175
350.84	0.010
351.06	0.026
351.28	0.023
351.50	-0.039
351.71	0.094
351.93	0.042
352.15	0.008
352.37	0.111
352.58	0.029
352.80	0.035
353.02	0.069
353.24	0.115
353.46	1.504
353.67	-0.274
353.89	0.113
354.11	0.088
354.33	0.113
354.54	0.195
354.76	0.330
354.98	0.708
355.20	0.420
355.41	0.116
355.63	0.193
355.85	0.077
356.07	0.660
356.28	0.064
356.50	0.135
356.72	0.050
356.94	0.143
357.15	0.229
357.37	-0.000
357.59	0.111
357.81	0.067
358.02	0.157
358.24	0.118
358.46	0.249
358.68	0.256
358.89	0.135
359.11	-0.000
359.33	0.111
359.55	-0.654
359.76	0.170
359.98	0.208
360.20	0.225
360.42	0.157
360.63	0.199
360.85	0.144
361.07	1.166
361.29	0.119
361.50	0.454
361.72	0.130
361.94	0.519
362.15	0.203
362.37	0.114
362.59	0.114
362.81	0.190
363.02	0.323
363.24	0.532
363.46	0.258
363.68	0.325
363.89	0.184
364.11	0.260
364.33	0.339
364.54	0.196
364.76	0.228
364.98	0.267
365.20	0.284
365.41	0.155
365.63	0.188
365.85	0.137
366.06	0.473
366.28	0.468
366.50	0.322
366.71	0.118
366.93	0.162
367.15	0.146
367.37	0.133
367.58	0.173
367.80	0.207
368.02	0.645
368.23	0.181
368.45	0.180
368.67	0.156
368.88	0.165
369.10	-0.000
369.32	0.145
369.53	0.083
369.75	0.140
369.97	0.352
370.19	0.199
370.40	0.082
370.62	0.220
370.84	0.079
371.05	0.376
371.27	0.091
371.49	0.141
371.70	0.159
371.92	0.246
372.14	0.082
372.35	0.093
372.57	0.092
372.79	0.237
373.00	0.065
373.22	0.088
373.44	0.085
373.65	0.075
373.87	0.092
374.09	0.352
374.30	0.102
374.52	0.141
374.74	0.106
374.95	0.488
375.17	0.120
375.39	-0.000
375.60	0.156
375.82	0.300
376.04	0.124
376.25	0.113
376.47	0.063
376.68	0.131
376.90	0.083
377.12	0.130
377.33	0.092
377.55	0.244
377.77	0.118
377.98	0.167
378.20	0.102
378.42	0.134
378.63	0.207
378.85	-0.000
379.07	0.146
379.28	0.457
379.50	0.325
379.71	0.173
379.93	0.112
380.15	0.162
380.36	0.232
380.58	0.144
380.80	0.320
381.01	0.116
381.23	0.099
381.44	0.120
381.66	0.145
381.88	0.170
382.09	-0.076
382.31	0.119
382.53	0.122
382.74	0.627
382.96	0.188
383.17	0.164
383.39	0.205
383.61	0.260
383.82	0.181
384.04	0.214
384.25	0.267
384.47	0.271
384.69	0.262
384.90	0.243
385.12	0.551
385.33	0.335
385.55	0.234
385.77	0.356
385.98	0.175
386.20	0.243
386.41	0.224
386.63	0.242
386.85	0.191
387.06	0.226
387.28	0.351
387.49	0.218
387.71	0.164
387.93	0.158
388.14	0.471
388.36	0.193
388.57	0.168
388.79	0.173
389.01	0.921
389.22	0.233
389.44	0.208
389.65	0.173
389.87	0.173
390.08	0.208
390.30	0.158
390.52	0.298
390.73	0.317
390.95	0.225
391.16	0.226
391.38	-0.000
391.59	0.260
391.81	0.217
392.03	0.196
392.24	0.227
392.46	0.187
392.67	0.170
392.89	0.243
393.10	0.382
393.32	0.248
393.53	0.289
393.75	0.191
393.97	0.217
394.18	0.303
394.40	0.273
394.61	0.292
394.83	0.261
395.04	0.311
395.26	0.202
395.47	0.293
395.69	0.258
395.91	0.279
396.12	0.321
396.34	0.315
396.55	0.197
396.77	0.299
396.98	1.129
397.20	0.345
397.41	0.361
397.63	0.259
397.84	0.244
398.06	0.236
398.27	0.233
398.49	0.291
398.71	0.211
398.92	0.262
399.14	0.325
399.35	0.417
399.57	0.401
399.78	0.285
400.00	0.283
400.21	0.358
400.43	0.285
400.64	0.303
400.86	0.687
401.07	0.380
401.29	0.331
401.50	0.357
401.72	0.535
401.93	0.325
402.15	0.409
402.36	0.376
402.58	0.294
402.79	0.331
403.01	0.572
403.22	0.421
403.44	0.288
403.65	0.458
403.87	0.487
404.08	0.372
404.30	0.652
404.51	0.342
404.73	0.406
404.94	0.354
405.16	0.355
405.37	0.274
405.59	0.499
405.80	0.299
406.02	0.363
406.23	0.374
406.45	0.406
406.66	0.441
406.88	0.279
407.09	0.416
407.31	0.328
407.52	0.405
407.74	0.340
407.95	0.405
408.17	0.386
408.38	0.422
408.60	0.284
408.81	0.492
409.03	0.352
409.24	0.368
409.45	0.435
409.67	0.432
409.88	0.381
410.10	0.486
410.31	0.405
410.53	0.385
410.74	0.534
410.96	0.530
411.17	0.544
411.39	0.421
411.60	0.380
411.82	0.433
412.03	0.420
412.24	0.396
412.46	0.562
412.67	0.457
412.89	0.446
413.10	0.440
413.32	0.400
413.53	0.465
413.75	0.468
413.96	0.365
414.17	0.493
414.39	0.496
414.60	0.417
414.82	0.570
415.03	0.437
415.25	0.485
415.46	0.337
415.68	0.471
415.89	0.900
416.10	0.709
416.32	0.372
416.53	0.437
416.75	0.415
416.96	0.495
417.18	0.423
417.39	0.394
417.60	0.399
417.82	0.572
418.03	0.499
418.25	0.421
418.46	0.439
418.67	0.407
418.89	0.432
419.10	0.440
419.32	0.588
419.53	0.527
419.75	0.460
419.96	0.403
420.17	0.498
420.39	0.461
420.60	0.472
420.82	0.570
421.03	0.459
421.24	0.394
421.46	0.441
421.67	0.473
421.89	0.416
422.10	0.450
422.31	0.448
422.53	0.626
422.74	0.473
422.96	0.378
423.17	0.427
423.38	0.520
423.60	0.440
423.81	0.546
424.03	0.471
424.24	0.528
424.45	0.522
424.67	0.516
424.88	0.456
425.09	0.499
425.31	0.470
425.52	0.489
425.74	0.560
425.95	0.595
426.16	0.462
426.38	0.534
426.59	0.478
426.80	0.547
427.02	0.586
427.23	0.464
427.45	0.599
427.66	0.584
427.87	0.463
428.09	0.497
428.30	0.560
428.51	0.546
428.73	0.598
428.94	0.540
429.15	0.519
429.37	0.491
429.58	0.516
429.79	0.474
430.01	0.561
430.22	0.553
430.44	0.556
430.65	0.504
430.86	0.544
431.08	0.531
431.29	0.485
431.50	0.580
431.72	0.756
431.93	0.616
432.14	0.474
432.36	0.518
432.57	0.523
432.78	0.537
433.00	0.497
433.21	0.492
433.42	0.611
433.64	0.537
433.85	0.598
434.06	0.497
434.28	0.531
434.49	0.546
434.70	0.557
434.92	0.577
435.13	0.616
435.34	0.621
435.56	0.583
435.77	0.580
435.98	0.741
436.20	0.632
436.41	0.538
436.62	0.529
436.83	0.598
437.05	0.669
437.26	0.591
437.47	0.527
437.69	0.575
437.90	0.532
438.11	0.517
438.33	0.563
438.54	0.576
438.75	0.727
438.97	0.699
439.18	0.534
439.39	0.559
439.60	0.603
439.82	0.577
440.03	0.537
440.24	0.753
440.46	0.587
440.67	0.569
440.88	0.604
441.10	0.571
441.31	0.570
441.52	0.621
441.73	0.685
441.95	0.607
442.16	0.557
442.37	0.835
442.58	0.555
442.80	0.541
443.01	0.694
443.22	0.644
443.44	0.553
443.65	0.661
443.86	0.650
444.07	0.699
444.29	0.609
444.50	0.782
444.71	0.593
444.92	0.557
445.14	0.703
445.35	0.738
445.56	0.586
445.78	0.681
445.99	0.668
446.20	0.582
446.41	0.649
446.63	0.654
446.84	0.616
447.05	0.621
447.26	0.734
447.48	0.628
447.69	0.593
447.90	0.667
448.11	0.597
448.33	0.623
448.54	0.641
448.75	0.671
448.96	0.677
449.18	0.705
449.39	0.634
449.60	0.620
449.81	0.730
450.03	0.646
450.24	0.696
450.45	0.659
450.66	0.646
450.87	0.671
451.09	0.634
451.30	0.615
451.51	0.678
451.72	0.688
451.94	0.702
452.15	0.764
452.36	0.646
452.57	0.661
452.78	0.665
453.00	0.691
453.21	0.657
453.42	0.637
453.63	0.720
453.85	0.694
454.06	0.698
454.27	0.818
454.48	0.735
454.69	0.662
454.91	0.723
455.12	0.635
455.33	0.701
455.54	0.714
455.75	0.682
455.97	0.706
456.18	0.694
456.39	0.690
456.60	0.704
456.81	0.653
457.03	0.664
457.24	0.664
457.45	0.733
457.66	0.699
457.87	0.662
458.09	0.680
458.30	0.606
458.51	0.706
458.72	0.731
458.93	0.740
459.15	0.660
459.36	0.715
459.57	0.742
459.78	0.780
459.99	0.704
460.20	0.677
460.42	0.747
460.63	0.712
460.84	0.698
461.05	0.717
461.26	0.771
461.47	0.699
461.69	0.741
461.90	0.769
462.11	0.732
462.32	0.779
462.53	0.725
462.74	0.810
462.96	0.711
463.17	0.702
463.38	0.736
463.59	0.826
463.80	0.700
464.01	0.726
464.23	0.800
464.44	0.766
464.65	0.773
464.86	0.789
465.07	0.787
465.28	0.755
465.49	0.774
465.71	0.732
465.92	0.766
466.13	0.801
466.34	0.743
466.55	0.785
466.76	0.755
466.97	0.775
467.19	0.771
467.40	0.807
467.61	0.815
467.82	0.748
468.03	0.734
468.24	0.793
468.45	0.824
468.66	0.811
468.88	0.819
469.09	0.820
469.30	0.860
469.51	0.791
469.72	0.824
469.93	0.797
470.14	0.778
470.35	0.854
470.57	0.815
470.78	0.763
470.99	0.867
471.20	0.817
471.41	0.786
471.62	0.829
471.83	0.804
472.04	0.832
472.25	0.862
472.47	0.793
472.68	0.799
472.89	0.802
473.10	0.839
473.31	0.800
473.52	0.850
473.73	0.868
473.94	0.805
474.15	0.830
474.36	0.829
474.57	0.855
474.79	0.833
475.00	0.833
475.21	0.821
475.42	0.898
475.63	0.818
475.84	0.842
476.05	0.846
476.26	0.819
476.47	0.844
476.68	0.883
476.89	0.821
477.10	0.862
477.32	0.851
477.53	0.894
477.74	0.831
477.95	0.863
478.16	0.821
478.37	0.856
478.58	0.859
478.79	0.869
479.00	0.869
479.21	0.836
479.42	0.870
479.63	0.877
479.84	0.844
480.05	0.841
480.26	0.865
480.47	0.882
480.69	0.880
480.90	0.852
481.11	0.854
481.32	0.903
481.53	0.854
481.74	0.897
481.95	0.863
482.16	0.879
482.37	0.888
482.58	0.858
482.79	0.874
483.00	0.902
483.21	0.858
483.42	0.836
483.63	0.899
483.84	0.920
484.05	0.912
484.26	0.892
484.47	0.892
484.68	0.859
484.89	0.865
485.10	0.902
485.31	0.882
485.52	0.888
485.73	0.888
485.94	0.920
486.15	0.878
486.37	0.890
486.58	0.863
486.79	0.873
487.00	0.916
487.21	0.908
487.42	0.906
487.63	0.912
487.84	0.927
488.05	0.923
488.26	0.890
488.47	0.894
488.68	0.920
488.89	0.900
489.10	0.894
489.31	0.899
489.52	0.928
489.73	0.900
489.94	0.928
490.15	0.892
490.36	0.927
490.57	0.888
490.78	0.877
490.99	0.909
491.20	0.971
491.41	0.936
491.62	0.892
491.83	0.917
492.04	0.912
492.25	0.919
492.45	0.919
492.66	0.939
492.87	0.931
493.08	0.918
493.29	0.904
493.50	0.894
493.71	0.901
493.92	0.899
494.13	0.911
494.34	0.931
494.55	0.936
494.76	0.961
494.97	0.954
495.18	0.926
495.39	0.942
495.60	0.902
495.81	0.905
496.02	0.920
496.23	0.911
496.44	0.937
496.65	0.930
496.86	0.937
497.07	0.957
497.28	0.953
497.49	0.911
497.70	0.911
497.91	0.928
498.12	0.914
498.32	0.947
498.53	0.938
498.74	0.929
498.95	0.950
499.16	0.912
499.37	0.913
499.58	0.922
499.79	0.947
500.00	0.943
500.21	0.967
500.42	0.923
500.63	0.924
500.84	0.941
501.05	0.924
501.26	0.942
501.46	0.972
501.67	0.943
501.88	0.945
502.09	0.925
502.30	0.933
502.51	0.971
502.72	0.934
502.93	0.946
503.14	0.963
503.35	0.939
503.56	0.937
503.77	0.961
503.97	0.942
504.18	0.942
504.39	0.971
504.60	0.943
504.81	0.967
505.02	0.959
505.23	0.960
505.44	0.945
505.65	0.952
505.86	0.937
506.07	0.991
506.27	0.959
506.48	0.962
506.69	0.947
506.90	0.966
507.11	0.962
507.32	0.940
507.53	0.948
507.74	0.942
507.95	0.952
508.15	0.958
508.36	0.962
508.57	0.969
508.78	0.957
508.99	0.957
509.20	0.936
509.41	0.954
509.62	0.946
509.82	0.944
510.03	0.952
510.24	0.953
510.45	0.971
510.66	0.965
510.87	0.962
511.08	0.929
511.29	0.961
511.49	0.944
511.70	0.984
511.91	0.931
512.12	0.928
512.33	0.955
512.54	0.968
512.75	0.953
512.95	0.971
513.16	0.964
513.37	0.947
513.58	0.981
513.79	0.948
514.00	0.951
514.20	0.965
514.41	0.957
514.62	0.929
514.83	0.960
515.04	0.952
515.25	0.937
515.46	0.946
515.66	0.946
515.87	0.953
516.08	0.929
516.29	0.950
516.50	0.935
516.71	0.930
516.91	0.938
517.12	0.951
517.33	0.940
517.54	0.927
517.75	0.930
517.95	0.942
518.16	0.953
518.37	0.927
518.58	0.931
518.79	0.909
519.00	0.933
519.20	0.940
519.41	0.920
519.62	0.934
519.83	0.944
520.04	0.916
520.24	0.913
520.45	0.920
520.66	0.938
520.87	0.907
521.08	0.907
521.28	0.911
521.49	0.925
521.70	0.900
521.91	0.914
522.12	0.899
522.32	0.916
522.53	0.898
522.74	0.890
522.95	0.897
523.16	0.900
523.36	0.908
523.57	0.893
523.78	0.887
523.99	0.892
524.20	0.886
524.40	0.894
524.61	0.900
524.82	0.880
525.03	0.883
525.23	0.883
525.44	0.870
525.65	0.868
525.86	0.886
526.06	0.863
526.27	0.862
526.48	0.869
526.69	0.854
526.90	0.858
527.10	0.888
527.31	0.852
527.52	0.848
527.73	0.840
527.93	0.848
528.14	0.852
528.35	0.843
528.56	0.844
528.76	0.839
528.97	0.833
529.18	0.824
529.39	0.822
529.59	0.822
529.80	0.847
530.01	0.827
530.22	0.826
530.42	0.801
530.63	0.815
530.84	0.796
531.05	0.806
531.25	0.806
531.46	0.799
531.67	0.783
531.88	0.800
532.08	0.793
532.29	0.787
532.50	0.780
532.70	0.774
532.91	0.764
533.12	0.766
533.33	0.787
533.53	0.763
533.74	0.764
533.95	0.769
534.15	0.759
534.36	0.760
534.57	0.746
534.78	0.748
534.98	0.756
535.19	0.733
535.40	0.735
535.60	0.750
535.81	0.732
536.02	0.734
536.23	0.725
536.43	0.726
536.64	0.714
536.85	0.721
537.05	0.728
537.26	0.709
537.47	0.710
537.67	0.701
537.88	0.696
538.09	0.703
538.30	0.693
538.50	0.685
538.71	0.696
538.92	0.685
539.12	0.682
539.33	0.678
539.54	0.679
539.74	0.682
539.95	0.673
540.16	0.670
540.36	0.663
540.57	0.662
540.78	0.656
540.98	0.655
541.19	0.653
541.40	0.642
541.60	0.650
541.81	0.645
542.02	0.645
542.22	0.637
542.43	0.634
542.64	0.629
542.84	0.630
543.05	0.623
543.26	0.623
543.46	0.626
543.67	0.625
543.88	0.620
544.08	0.612
544.29	0.607
544.50	0.606
544.70	0.607
544.91	0.599
545.12	0.600
545.32	0.596
545.53	0.600
545.74	0.588
545.94	0.586
546.15	0.584
546.35	0.581
546.56	0.579
546.77	0.577
546.97	0.574
547.18	0.567
547.39	0.568
547.59	0.566
547.80	0.562
548.01	0.567
548.21	0.562
548.42	0.555
548.62	0.555
548.83	0.552
549.04	0.548
549.24	0.542
549.45	0.541
549.65	0.537
549.86	0.533
550.07	0.532
550.27	0.530
550.48	0.537
550.69	0.524
550.89	0.524
551.10	0.522
551.30	0.520
551.51	0.520
551.72	0.511
551.92	0.513
552.13	0.512
552.33	0.513
552.54	0.508
552.75	0.501
552.95	0.502
553.16	0.498
553.36	0.495
553.57	0.494
553.78	0.492
553.98	0.493
554.19	0.485
554.39	0.482
554.60	0.484
554.80	0.484
555.01	0.478
555.22	0.479
555.42	0.477
555.63	0.471
555.83	0.474
556.04	0.469
556.25	0.470
556.45	0.462
556.66	0.460
556.86	0.463
557.07	0.461
557.27	0.460
557.48	0.455
557.68	0.453
557.89	0.454
558.10	0.451
558.30	0.448
558.51	0.446
558.71	0.444
558.92	0.440
559.12	0.442
559.33	0.445
559.54	0.441
559.74	0.436
559.95	0.434
560.15	0.433
560.36	0.431
560.56	0.425
560.77	0.425
560.97	0.425
561.18	0.420
561.38	0.419
561.59	0.421
561.79	0.417
562.00	0.415
562.21	0.412
562.41	0.411
562.62	0.410
562.82	0.409
563.03	0.406
563.23	0.405
563.44	0.405
563.64	0.402
563.85	0.404
564.05	0.398
564.26	0.398
564.46	0.397
564.67	0.398
564.87	0.394
565.08	0.391
565.28	0.392
565.49	0.392
565.69	0.389
565.90	0.386
566.10	0.388
566.31	0.381
566.51	0.384
566.72	0.384
566.92	0.378
567.13	0.378
567.33	0.376
567.54	0.375
567.74	0.374
567.95	0.370
568.15	0.371
568.36	0.371
568.56	0.370
568.77	0.366
568.97	0.365
569.18	0.365
569.38	0.363
569.59	0.364
569.79	0.362
570.00	0.360
570.20	0.359
570.41	0.358
570.61	0.357
570.82	0.358
571.02	0.354
571.23	0.355
571.43	0.351
571.64	0.350
571.84	0.349
572.05	0.348
572.25	0.347
572.45	0.344
572.66	0.341
572.86	0.340
573.07	0.339
573.27	0.339
573.48	0.338
573.68	0.334
573.89	0.334
574.09	0.334
574.30	0.332
574.50	0.331
574.70	0.331
574.91	0.329
575.11	0.329
575.32	0.328
575.52	0.325
575.73	0.324
575.93	0.324
576.14	0.323
576.34	0.321
576.54	0.320
576.75	0.318
576.95	0.317
577.16	0.316
577.36	0.315
577.57	0.315
577.77	0.313
577.97	0.310
578.18	0.312
578.38	0.309
578.59	0.308
578.79	0.306
579.00	0.307
579.20	0.305
579.40	0.304
579.61	0.304
579.81	0.303
580.02	0.300
580.22	0.300
580.42	0.299
580.63	0.299
580.83	0.298
581.04	0.296
581.24	0.296
581.45	0.295
581.65	0.295
581.85	0.293
582.06	0.291
582.26	0.292
582.47	0.290
582.67	0.289
582.87	0.289
583.08	0.287
583.28	0.287
583.48	0.285
583.69	0.282
583.89	0.283
584.10	0.284
584.30	0.281
584.50	0.280
584.71	0.279
584.91	0.279
585.12	0.277
585.32	0.278
585.52	0.275
585.73	0.275
585.93	0.275
586.13	0.274
586.34	0.273
586.54	0.272
586.75	0.271
586.95	0.270
587.15	0.270
587.36	0.269
587.56	0.268
587.76	0.267
587.97	0.266
588.17	0.265
588.37	0.265
588.58	0.265
588.78	0.263
588.98	0.264
589.19	0.262
589.39	0.261
589.60	0.263
589.80	0.260
590.00	0.259
590.21	0.259
590.41	0.257
590.61	0.257
590.82	0.256
591.02	0.255
591.22	0.254
591.43	0.254
591.63	0.252
591.83	0.252
592.04	0.250
592.24	0.251
592.44	0.249
592.65	0.247
592.85	0.248
593.05	0.248
593.26	0.246
593.46	0.246
593.66	0.246
593.86	0.245
594.07	0.243
594.27	0.243
594.47	0.242
594.68	0.241
594.88	0.242
595.08	0.241
595.29	0.241
595.49	0.239
595.69	0.239
595.90	0.238
596.10	0.238
596.30	0.237
596.50	0.236
596.71	0.236
596.91	0.235
597.11	0.235
597.32	0.234
597.52	0.233
597.72	0.232
597.93	0.232
598.13	0.230
598.33	0.231
598.53	0.230
598.74	0.229
598.94	0.229
599.14	0.228
599.35	0.228
599.55	0.229
599.75	0.228
599.95	0.227
600.16	0.227
600.36	0.225
600.56	0.225
600.76	0.224
600.97	0.223
601.17	0.222
601.37	0.222
601.58	0.221
601.78	0.221
601.98	0.220
602.18	0.219
602.39	0.219
602.59	0.219
602.79	0.218
602.99	0.218
603.20	0.217
603.40	0.218
603.60	0.217
603.80	0.217
604.01	0.216
604.21	0.215
604.41	0.215
604.61	0.213
604.82	0.213
605.02	0.213
605.22	0.212
605.42	0.212
605.62	0.212
605.83	0.211
606.03	0.210
606.23	0.211
606.43	0.210
606.64	0.210
606.84	0.209
607.04	0.209
607.24	0.209
607.45	0.209
607.65	0.207
607.85	0.208
608.05	0.207
608.25	0.207
608.46	0.207
608.66	0.207
608.86	0.206
609.06	0.205
609.26	0.204
609.47	0.204
609.67	0.203
609.87	0.204
610.07	0.203
610.28	0.201
610.48	0.201
610.68	0.201
610.88	0.200
611.08	0.200
611.29	0.199
611.49	0.199
611.69	0.200
611.89	0.198
612.09	0.197
612.29	0.197
612.50	0.197
612.70	0.197
612.90	0.196
613.10	0.196
613.30	0.195
613.51	0.195
613.71	0.195
613.91	0.199
614.11	0.194
614.31	0.194
614.51	0.194
614.72	0.193
614.92	0.193
615.12	0.193
615.32	0.194
615.52	0.193
615.72	0.193
615.93	0.193
616.13	0.192
616.33	0.192
616.53	0.191
616.73	0.191
616.93	0.190
617.14	0.191
617.34	0.190
617.54	0.190
617.74	0.190
617.94	0.189
618.14	0.188
618.34	0.187
618.55	0.187
618.75	0.188
618.95	0.188
619.15	0.187
619.35	0.186
619.55	0.185
619.75	0.186
619.96	0.185
620.16	0.185
620.36	0.185
620.56	0.185
620.76	0.185
620.96	0.184
621.16	0.184
621.36	0.184
621.57	0.184
621.77	0.184
621.97	0.183
622.17	0.182
622.37	0.182
622.57	0.182
622.77	0.181
622.97	0.180
623.18	0.180
623.38	0.181
623.58	0.180
623.78	0.179
623.98	0.179
624.18	0.179
624.38	0.179
624.58	0.179
624.78	0.179
624.98	0.179
625.19	0.179
625.39	0.179
625.59	0.178
625.79	0.178
625.99	0.177
626.19	0.177
626.39	0.177
626.59	0.176
626.79	0.176
626.99	0.176
627.19	0.175
627.40	0.175
627.60	0.175
627.80	0.175
628.00	0.175
628.20	0.174
628.40	0.173
628.60	0.173
628.80	0.172
629.00	0.172
629.20	0.172
629.40	0.172
629.60	0.171
629.80	0.172
630.00	0.172
630.20	0.171
630.41	0.171
630.61	0.171
630.81	0.170
631.01	0.171
631.21	0.170
631.41	0.170
631.61	0.171
631.81	0.170
632.01	0.170
632.21	0.170
632.41	0.168
632.61	0.168
632.81	0.169
633.01	0.169
633.21	0.169
633.41	0.169
633.61	0.168
633.81	0.167
634.01	0.167
634.21	0.167
634.41	0.166
634.61	0.167
634.81	0.166
635.01	0.166
635.22	0.166
