SpectraSuite Data File
++++++++++++++++++++++++++++++++++++
Date: Mon May 20 12:13:19 CDT 2013
User: Students
Dark Spectrum Present: Yes
Reference Spectrum Present: Yes
Number of Sampled Component Spectra: 1
Spectrometers: USB4H00887
Integration Time (usec): 60000 (USB4H00887)
Spectra Averaged: 5 (USB4H00887)
Boxcar Smoothing: 5 (USB4H00887)
Correct for Electrical Dark: No (USB4H00887)
Strobe/Lamp Enabled: No (USB4H00887)
Correct for Detector Non-linearity: No (USB4H00887)
Correct for Stray Light: No (USB4H00887)
Number of Pixels in Processed Spectrum: 3648
>>>>>Begin Processed Spectral Data<<<<<
345.83	0.135
346.05	0.135
346.26	0.135
346.48	-0.000
346.70	-0.000
346.92	0.092
347.14	0.081
347.35	0.083
347.57	0.950
347.79	-0.325
348.01	-0.231
348.23	-0.359
348.44	-0.000
348.66	0.416
348.88	-0.448
349.10	-0.181
349.32	0.040
349.53	0.011
349.75	0.044
349.97	0.076
350.19	0.141
350.41	0.129
350.62	-0.308
350.84	0.047
351.06	0.071
351.28	0.092
351.50	0.269
351.71	0.122
351.93	0.095
352.15	0.022
352.37	0.051
352.58	0.029
352.80	0.038
353.02	0.044
353.24	0.037
353.46	0.034
353.67	0.007
353.89	-0.007
354.11	0.003
354.33	0.015
354.54	0.034
354.76	0.069
354.98	0.080
355.20	0.094
355.41	0.054
355.63	0.171
355.85	0.089
356.07	1.688
356.28	0.098
356.50	0.186
356.72	0.065
356.94	0.153
357.15	0.231
357.37	-0.000
357.59	0.109
357.81	0.066
358.02	0.085
358.24	0.091
358.46	0.193
358.68	0.140
358.89	0.077
359.11	-0.000
359.33	0.086
359.55	-0.538
359.76	0.129
359.98	0.147
360.20	0.162
360.42	0.114
360.63	0.103
360.85	0.061
361.07	0.433
361.29	0.068
361.50	0.148
361.72	0.065
361.94	0.245
362.15	0.083
362.37	0.040
362.59	0.039
362.81	0.067
363.02	0.138
363.24	0.246
363.46	0.123
363.68	0.192
363.89	0.150
364.11	0.187
364.33	0.219
364.54	0.167
364.76	0.216
364.98	0.241
365.20	0.286
365.41	0.148
365.63	0.169
365.85	0.128
366.06	0.334
366.28	0.229
366.50	0.174
366.71	0.069
366.93	0.066
367.15	0.059
367.37	0.069
367.58	0.086
367.80	0.105
368.02	0.191
368.23	0.096
368.45	0.108
368.67	0.109
368.88	0.111
369.10	-0.000
369.32	0.131
369.53	0.072
369.75	0.109
369.97	0.284
370.19	0.227
370.40	0.098
370.62	0.213
370.84	0.083
371.05	0.352
371.27	0.102
371.49	0.131
371.70	0.144
371.92	0.209
372.14	0.094
372.35	0.099
372.57	0.099
372.79	0.219
373.00	0.067
373.22	0.104
373.44	0.119
373.65	0.103
373.87	0.134
374.09	0.550
374.30	0.128
374.52	0.138
374.74	0.093
374.95	0.362
375.17	0.100
375.39	-0.000
375.60	0.157
375.82	0.310
376.04	0.129
376.25	0.156
376.47	0.100
376.68	0.255
376.90	0.148
377.12	0.378
377.33	0.180
377.55	0.502
377.77	0.238
377.98	0.310
378.20	0.158
378.42	0.189
378.63	0.225
378.85	-0.000
379.07	0.147
379.28	0.542
379.50	0.370
379.71	0.199
379.93	0.139
380.15	0.177
380.36	0.275
380.58	0.180
380.80	0.457
381.01	0.152
381.23	0.127
381.44	0.129
381.66	0.165
381.88	0.172
382.09	-0.074
382.31	0.103
382.53	0.104
382.74	0.426
382.96	0.148
383.17	0.138
383.39	0.186
383.61	0.232
383.82	0.160
384.04	0.179
384.25	0.222
384.47	0.210
384.69	0.229
384.90	0.210
385.12	0.443
385.33	0.277
385.55	0.205
385.77	0.310
385.98	0.166
386.20	0.239
386.41	0.209
386.63	0.256
386.85	0.205
387.06	0.255
387.28	0.387
387.49	0.258
387.71	0.188
387.93	0.162
388.14	0.465
388.36	0.203
388.57	0.190
388.79	0.207
389.01	1.232
389.22	0.276
389.44	0.219
389.65	0.191
389.87	0.184
390.08	0.223
390.30	0.188
390.52	0.353
390.73	0.345
390.95	0.249
391.16	0.250
391.38	-0.000
391.59	0.287
391.81	0.254
392.03	0.253
392.24	0.315
392.46	0.252
392.67	0.221
392.89	0.325
393.10	0.520
393.32	0.334
393.53	0.379
393.75	0.237
393.97	0.266
394.18	0.382
394.40	0.304
394.61	0.304
394.83	0.270
395.04	0.317
395.26	0.208
395.47	0.318
395.69	0.259
395.91	0.281
396.12	0.343
396.34	0.332
396.55	0.211
396.77	0.326
396.98	-0.000
397.20	0.430
397.41	0.484
397.63	0.336
397.84	0.300
398.06	0.296
398.27	0.293
398.49	0.321
398.71	0.241
398.92	0.288
399.14	0.367
399.35	0.426
399.57	0.412
399.78	0.273
400.00	0.268
400.21	0.333
400.43	0.264
400.64	0.283
400.86	0.638
401.07	0.353
401.29	0.320
401.50	0.347
401.72	0.513
401.93	0.321
402.15	0.398
402.36	0.351
402.58	0.295
402.79	0.338
403.01	0.592
403.22	0.452
403.44	0.303
403.65	0.486
403.87	0.513
404.08	0.398
404.30	0.667
404.51	0.357
404.73	0.442
404.94	0.366
405.16	0.362
405.37	0.283
405.59	0.518
405.80	0.316
406.02	0.376
406.23	0.385
406.45	0.430
406.66	0.458
406.88	0.291
407.09	0.465
407.31	0.372
407.52	0.454
407.74	0.357
407.95	0.416
408.17	0.392
408.38	0.425
408.60	0.283
408.81	0.489
409.03	0.364
409.24	0.376
409.45	0.429
409.67	0.421
409.88	0.389
410.10	0.519
410.31	0.443
410.53	0.434
410.74	0.641
410.96	0.614
411.17	0.650
411.39	0.485
411.60	0.428
411.82	0.498
412.03	0.461
412.24	0.445
412.46	0.663
412.67	0.509
412.89	0.484
413.10	0.483
413.32	0.443
413.53	0.497
413.75	0.511
413.96	0.393
414.17	0.529
414.39	0.549
414.60	0.433
414.82	0.580
415.03	0.440
415.25	0.488
415.46	0.337
415.68	0.480
415.89	0.956
416.10	0.728
416.32	0.380
416.53	0.458
416.75	0.425
416.96	0.529
417.18	0.452
417.39	0.439
417.60	0.446
417.82	0.657
418.03	0.572
418.25	0.469
418.46	0.499
418.67	0.458
418.89	0.482
419.10	0.514
419.32	0.689
419.53	0.614
419.75	0.507
419.96	0.438
420.17	0.539
420.39	0.497
420.60	0.525
420.82	0.649
421.03	0.525
421.24	0.437
421.46	0.486
421.67	0.528
421.89	0.461
422.10	0.508
422.31	0.510
422.53	0.740
422.74	0.530
422.96	0.413
423.17	0.461
423.38	0.567
423.60	0.487
423.81	0.605
424.03	0.515
424.24	0.578
424.45	0.563
424.67	0.559
424.88	0.493
425.09	0.536
425.31	0.496
425.52	0.528
425.74	0.594
425.95	0.639
426.16	0.495
426.38	0.573
426.59	0.527
426.80	0.613
427.02	0.650
427.23	0.510
427.45	0.674
427.66	0.659
427.87	0.500
428.09	0.534
428.30	0.591
428.51	0.579
428.73	0.642
428.94	0.568
429.15	0.552
429.37	0.531
429.58	0.559
429.79	0.522
430.01	0.626
430.22	0.615
430.44	0.624
430.65	0.567
430.86	0.606
431.08	0.594
431.29	0.536
431.50	0.646
431.72	0.853
431.93	0.688
432.14	0.511
432.36	0.557
432.57	0.574
432.78	0.591
433.00	0.544
433.21	0.542
433.42	0.671
433.64	0.588
433.85	0.661
434.06	0.540
434.28	0.568
434.49	0.594
434.70	0.613
434.92	0.629
435.13	0.694
435.34	0.700
435.56	0.653
435.77	0.654
435.98	0.851
436.20	0.704
436.41	0.603
436.62	0.585
436.83	0.654
437.05	0.738
437.26	0.637
437.47	0.561
437.69	0.618
437.90	0.567
438.11	0.561
438.33	0.616
438.54	0.627
438.75	0.791
438.97	0.792
439.18	0.596
439.39	0.630
439.60	0.687
439.82	0.646
440.03	0.590
440.24	0.877
440.46	0.645
440.67	0.617
440.88	0.664
441.10	0.630
441.31	0.619
441.52	0.676
441.73	0.755
441.95	0.667
442.16	0.610
442.37	0.969
442.58	0.605
442.80	0.595
443.01	0.779
443.22	0.708
443.44	0.595
443.65	0.710
443.86	0.704
444.07	0.753
444.29	0.642
444.50	0.826
444.71	0.626
444.92	0.586
445.14	0.740
445.35	0.797
445.56	0.622
445.78	0.736
445.99	0.739
446.20	0.635
446.41	0.721
446.63	0.739
446.84	0.697
447.05	0.699
447.26	0.844
447.48	0.706
447.69	0.659
447.90	0.760
448.11	0.672
448.33	0.696
448.54	0.713
448.75	0.750
448.96	0.750
449.18	0.780
449.39	0.694
449.60	0.674
449.81	0.814
450.03	0.708
450.24	0.778
450.45	0.730
450.66	0.715
450.87	0.750
451.09	0.696
451.30	0.678
451.51	0.762
451.72	0.776
451.94	0.799
452.15	0.886
452.36	0.728
452.57	0.739
452.78	0.737
453.00	0.766
453.21	0.713
453.42	0.684
453.63	0.779
453.85	0.747
454.06	0.741
454.27	0.874
454.48	0.770
454.69	0.696
454.91	0.766
455.12	0.670
455.33	0.761
455.54	0.783
455.75	0.751
455.97	0.779
456.18	0.769
456.39	0.772
456.60	0.796
456.81	0.735
457.03	0.749
457.24	0.752
457.45	0.848
457.66	0.782
457.87	0.742
458.09	0.767
458.30	0.678
458.51	0.804
458.72	0.827
458.93	0.842
459.15	0.739
459.36	0.808
459.57	0.837
459.78	0.884
459.99	0.788
460.20	0.744
460.42	0.832
460.63	0.779
460.84	0.760
461.05	0.782
461.26	0.844
461.47	0.751
461.69	0.801
461.90	0.838
462.11	0.796
462.32	0.856
462.53	0.790
462.74	0.886
462.96	0.774
463.17	0.765
463.38	0.809
463.59	0.928
463.80	0.773
464.01	0.796
464.23	0.879
464.44	0.840
464.65	0.845
464.86	0.869
465.07	0.876
465.28	0.829
465.49	0.856
465.71	0.810
465.92	0.849
466.13	0.896
466.34	0.821
466.55	0.880
466.76	0.838
466.97	0.861
467.19	0.849
467.40	0.891
467.61	0.898
467.82	0.811
468.03	0.788
468.24	0.861
468.45	0.894
468.66	0.883
468.88	0.889
469.09	0.888
469.30	0.938
469.51	0.863
469.72	0.900
469.93	0.870
470.14	0.848
470.35	0.947
470.57	0.892
470.78	0.832
470.99	0.967
471.20	0.906
471.41	0.862
471.62	0.918
471.83	0.889
472.04	0.920
472.25	0.968
472.47	0.881
472.68	0.885
472.89	0.889
473.10	0.933
473.31	0.880
473.52	0.939
473.73	0.966
473.94	0.883
474.15	0.908
474.36	0.911
474.57	0.935
474.79	0.903
475.00	0.908
475.21	0.892
475.42	0.992
475.63	0.891
475.84	0.927
476.05	0.932
476.26	0.901
476.47	0.936
476.68	0.984
476.89	0.909
477.10	0.968
477.32	0.950
477.53	1.007
477.74	0.918
477.95	0.963
478.16	0.904
478.37	0.949
478.58	0.952
478.79	0.969
479.00	0.970
479.21	0.927
479.42	0.965
479.63	0.969
479.84	0.930
480.05	0.931
480.26	0.963
480.47	0.984
480.69	0.984
480.90	0.950
481.11	0.943
481.32	1.009
481.53	0.943
481.74	1.000
481.95	0.965
482.16	0.981
482.37	0.989
482.58	0.950
482.79	0.964
483.00	0.994
483.21	0.934
483.42	0.909
483.63	0.985
483.84	1.014
484.05	1.000
484.26	0.968
484.47	0.966
484.68	0.928
484.89	0.935
485.10	0.988
485.31	0.966
485.52	0.974
485.73	0.973
485.94	1.016
486.15	0.962
486.37	0.982
486.58	0.949
486.79	0.965
487.00	1.019
487.21	1.011
487.42	1.004
487.63	1.009
487.84	1.029
488.05	1.027
488.26	0.981
488.47	0.988
488.68	1.017
488.89	0.988
489.10	0.979
489.31	0.989
489.52	1.022
489.73	0.989
489.94	1.030
490.15	0.985
490.36	1.025
490.57	0.977
490.78	0.963
490.99	1.002
491.20	1.082
491.41	1.037
491.62	0.977
491.83	1.008
492.04	1.003
492.25	1.010
492.45	1.009
492.66	1.035
492.87	1.025
493.08	1.009
493.29	0.993
493.50	0.987
493.71	0.996
493.92	0.992
494.13	1.007
494.34	1.029
494.55	1.038
494.76	1.073
494.97	1.063
495.18	1.028
495.39	1.045
495.60	0.992
495.81	0.992
496.02	1.017
496.23	1.010
496.44	1.043
496.65	1.033
496.86	1.038
497.07	1.064
497.28	1.060
497.49	1.003
497.70	1.006
497.91	1.028
498.12	1.010
498.32	1.053
498.53	1.037
498.74	1.027
498.95	1.055
499.16	1.005
499.37	1.011
499.58	1.022
499.79	1.052
500.00	1.045
500.21	1.074
500.42	1.015
500.63	1.015
500.84	1.036
501.05	1.017
501.26	1.042
501.46	1.084
501.67	1.039
501.88	1.040
502.09	1.016
502.30	1.024
502.51	1.076
502.72	1.030
502.93	1.046
503.14	1.070
503.35	1.036
503.56	1.032
503.77	1.065
503.97	1.043
504.18	1.044
504.39	1.079
504.60	1.047
504.81	1.077
505.02	1.065
505.23	1.069
505.44	1.049
505.65	1.057
505.86	1.038
506.07	1.108
506.27	1.065
506.48	1.071
506.69	1.055
506.90	1.078
507.11	1.075
507.32	1.047
507.53	1.055
507.74	1.044
507.95	1.059
508.15	1.063
508.36	1.068
508.57	1.080
508.78	1.059
508.99	1.060
509.20	1.033
509.41	1.060
509.62	1.048
509.82	1.046
510.03	1.058
510.24	1.056
510.45	1.081
510.66	1.072
510.87	1.065
511.08	1.024
511.29	1.068
511.49	1.042
511.70	1.088
511.91	1.018
512.12	1.016
512.33	1.051
512.54	1.069
512.75	1.050
512.95	1.075
513.16	1.068
513.37	1.045
513.58	1.083
513.79	1.046
514.00	1.055
514.20	1.077
514.41	1.062
514.62	1.027
514.83	1.070
515.04	1.062
515.25	1.041
515.46	1.052
515.66	1.053
515.87	1.067
516.08	1.035
516.29	1.059
516.50	1.038
516.71	1.033
516.91	1.045
517.12	1.061
517.33	1.046
517.54	1.033
517.75	1.036
517.95	1.048
518.16	1.058
518.37	1.022
518.58	1.028
518.79	1.001
519.00	1.031
519.20	1.040
519.41	1.013
519.62	1.032
519.83	1.044
520.04	1.009
520.24	1.008
520.45	1.021
520.66	1.044
520.87	1.003
521.08	1.001
521.28	1.007
521.49	1.023
521.70	0.992
521.91	1.006
522.12	0.985
522.32	1.009
522.53	0.990
522.74	0.978
522.95	0.989
523.16	0.993
523.36	1.002
523.57	0.983
523.78	0.977
523.99	0.983
524.20	0.976
524.40	0.989
524.61	0.995
524.82	0.968
525.03	0.974
525.23	0.976
525.44	0.960
525.65	0.959
525.86	0.982
526.06	0.953
526.27	0.953
526.48	0.961
526.69	0.942
526.90	0.946
527.10	0.982
527.31	0.934
527.52	0.925
527.73	0.918
527.93	0.927
528.14	0.932
528.35	0.920
528.56	0.923
528.76	0.915
528.97	0.906
529.18	0.896
529.39	0.895
529.59	0.899
529.80	0.931
530.01	0.903
530.22	0.905
530.42	0.875
530.63	0.894
530.84	0.869
531.05	0.883
531.25	0.887
531.46	0.880
531.67	0.858
531.88	0.876
532.08	0.869
532.29	0.864
532.50	0.854
532.70	0.847
532.91	0.838
533.12	0.841
533.33	0.867
533.53	0.837
533.74	0.835
533.95	0.842
534.15	0.830
534.36	0.832
534.57	0.815
534.78	0.818
534.98	0.826
535.19	0.796
535.40	0.798
535.60	0.817
535.81	0.796
536.02	0.800
536.23	0.791
536.43	0.793
536.64	0.779
536.85	0.788
537.05	0.797
537.26	0.776
537.47	0.779
537.67	0.769
537.88	0.764
538.09	0.771
538.30	0.759
538.50	0.750
538.71	0.761
538.92	0.748
539.12	0.743
539.33	0.738
539.54	0.738
539.74	0.741
539.95	0.731
540.16	0.728
540.36	0.720
540.57	0.719
540.78	0.713
540.98	0.712
541.19	0.709
541.40	0.697
541.60	0.707
541.81	0.702
542.02	0.702
542.22	0.692
542.43	0.688
542.64	0.683
542.84	0.682
543.05	0.674
543.26	0.674
543.46	0.677
543.67	0.676
543.88	0.671
544.08	0.661
544.29	0.655
544.50	0.656
544.70	0.655
544.91	0.645
545.12	0.647
545.32	0.641
545.53	0.646
545.74	0.635
545.94	0.631
546.15	0.628
546.35	0.624
546.56	0.621
546.77	0.618
546.97	0.616
547.18	0.608
547.39	0.608
547.59	0.607
547.80	0.602
548.01	0.605
548.21	0.600
548.42	0.593
548.62	0.591
548.83	0.588
549.04	0.584
549.24	0.578
549.45	0.577
549.65	0.574
549.86	0.570
550.07	0.570
550.27	0.567
550.48	0.575
550.69	0.561
550.89	0.563
551.10	0.559
551.30	0.557
551.51	0.557
551.72	0.547
551.92	0.547
552.13	0.546
552.33	0.546
552.54	0.540
552.75	0.534
552.95	0.536
553.16	0.530
553.36	0.528
553.57	0.526
553.78	0.524
553.98	0.523
554.19	0.515
554.39	0.511
554.60	0.515
554.80	0.514
555.01	0.507
555.22	0.508
555.42	0.505
555.63	0.498
555.83	0.502
556.04	0.495
556.25	0.498
556.45	0.488
556.66	0.487
556.86	0.489
557.07	0.487
557.27	0.486
557.48	0.480
557.68	0.477
557.89	0.478
558.10	0.475
558.30	0.473
558.51	0.470
558.71	0.468
558.92	0.462
559.12	0.465
559.33	0.468
559.54	0.463
559.74	0.458
559.95	0.456
560.15	0.456
560.36	0.453
560.56	0.447
560.77	0.448
560.97	0.447
561.18	0.442
561.38	0.441
561.59	0.444
561.79	0.440
562.00	0.438
562.21	0.434
562.41	0.432
562.62	0.432
562.82	0.430
563.03	0.426
563.23	0.425
563.44	0.425
563.64	0.422
563.85	0.423
564.05	0.416
564.26	0.415
564.46	0.414
564.67	0.415
564.87	0.411
565.08	0.407
565.28	0.407
565.49	0.408
565.69	0.406
565.90	0.402
566.10	0.405
566.31	0.398
566.51	0.400
566.72	0.400
566.92	0.394
567.13	0.394
567.33	0.393
567.54	0.391
567.74	0.389
567.95	0.385
568.15	0.387
568.36	0.385
568.56	0.384
568.77	0.380
568.97	0.378
569.18	0.377
569.38	0.375
569.59	0.375
569.79	0.373
570.00	0.371
570.20	0.369
570.41	0.367
570.61	0.366
570.82	0.367
571.02	0.363
571.23	0.365
571.43	0.361
571.64	0.359
571.84	0.358
572.05	0.356
572.25	0.355
572.45	0.353
572.66	0.350
572.86	0.349
573.07	0.348
573.27	0.348
573.48	0.347
573.68	0.343
573.89	0.342
574.09	0.343
574.30	0.341
574.50	0.340
574.70	0.341
574.91	0.338
575.11	0.338
575.32	0.337
575.52	0.334
575.73	0.333
575.93	0.333
576.14	0.331
576.34	0.329
576.54	0.328
576.75	0.327
576.95	0.326
577.16	0.324
577.36	0.322
577.57	0.322
577.77	0.320
577.97	0.318
578.18	0.319
578.38	0.316
578.59	0.314
578.79	0.312
579.00	0.312
579.20	0.311
579.40	0.310
579.61	0.310
579.81	0.308
580.02	0.306
580.22	0.305
580.42	0.304
580.63	0.304
580.83	0.303
581.04	0.301
581.24	0.300
581.45	0.299
581.65	0.298
581.85	0.297
582.06	0.295
582.26	0.295
582.47	0.294
582.67	0.293
582.87	0.293
583.08	0.291
583.28	0.291
583.48	0.289
583.69	0.286
583.89	0.286
584.10	0.287
584.30	0.285
584.50	0.283
584.71	0.282
584.91	0.282
585.12	0.280
585.32	0.280
585.52	0.278
585.73	0.277
585.93	0.276
586.13	0.276
586.34	0.275
586.54	0.274
586.75	0.273
586.95	0.272
587.15	0.271
587.36	0.270
587.56	0.269
587.76	0.268
587.97	0.267
588.17	0.266
588.37	0.265
588.58	0.265
588.78	0.262
588.98	0.263
589.19	0.261
589.39	0.259
589.60	0.261
589.80	0.258
590.00	0.258
590.21	0.258
590.41	0.256
590.61	0.255
590.82	0.254
591.02	0.253
591.22	0.252
591.43	0.252
591.63	0.251
591.83	0.250
592.04	0.248
592.24	0.249
592.44	0.246
592.65	0.245
592.85	0.246
593.05	0.246
593.26	0.244
593.46	0.244
593.66	0.244
593.86	0.243
594.07	0.241
594.27	0.241
594.47	0.240
594.68	0.240
594.88	0.240
595.08	0.239
595.29	0.240
595.49	0.238
595.69	0.237
595.90	0.236
596.10	0.236
596.30	0.236
596.50	0.234
596.71	0.233
596.91	0.232
597.11	0.232
597.32	0.231
597.52	0.230
597.72	0.229
597.93	0.228
598.13	0.227
598.33	0.227
598.53	0.226
598.74	0.225
598.94	0.225
599.14	0.225
599.35	0.225
599.55	0.224
599.75	0.223
599.95	0.222
600.16	0.223
600.36	0.221
600.56	0.221
600.76	0.220
600.97	0.219
601.17	0.218
601.37	0.218
601.58	0.217
601.78	0.217
601.98	0.217
602.18	0.216
602.39	0.215
602.59	0.215
602.79	0.214
602.99	0.214
603.20	0.213
603.40	0.213
603.60	0.212
603.80	0.212
604.01	0.211
604.21	0.210
604.41	0.210
604.61	0.208
604.82	0.207
605.02	0.208
605.22	0.207
605.42	0.206
605.62	0.206
605.83	0.205
606.03	0.204
606.23	0.204
606.43	0.204
606.64	0.204
606.84	0.204
607.04	0.204
607.24	0.203
607.45	0.203
607.65	0.202
607.85	0.203
608.05	0.201
608.25	0.201
608.46	0.201
608.66	0.200
608.86	0.199
609.06	0.198
609.26	0.197
609.47	0.197
609.67	0.196
609.87	0.197
610.07	0.196
610.28	0.194
610.48	0.194
610.68	0.194
610.88	0.193
611.08	0.194
611.29	0.193
611.49	0.192
611.69	0.193
611.89	0.191
612.09	0.191
612.29	0.191
612.50	0.191
612.70	0.191
612.90	0.190
613.10	0.189
613.30	0.189
613.51	0.189
613.71	0.189
613.91	0.193
614.11	0.188
614.31	0.188
614.51	0.187
614.72	0.186
614.92	0.186
615.12	0.186
615.32	0.187
615.52	0.186
615.72	0.186
615.93	0.186
616.13	0.185
616.33	0.185
616.53	0.184
616.73	0.184
616.93	0.183
617.14	0.184
617.34	0.183
617.54	0.183
617.74	0.183
617.94	0.182
618.14	0.182
618.34	0.181
618.55	0.180
618.75	0.181
618.95	0.181
619.15	0.181
619.35	0.180
619.55	0.179
619.75	0.180
619.96	0.178
620.16	0.178
620.36	0.178
620.56	0.178
620.76	0.178
620.96	0.177
621.16	0.177
621.36	0.176
621.57	0.176
621.77	0.177
621.97	0.176
622.17	0.176
622.37	0.176
622.57	0.176
622.77	0.175
622.97	0.174
623.18	0.174
623.38	0.174
623.58	0.173
623.78	0.173
623.98	0.172
624.18	0.172
624.38	0.171
624.58	0.172
624.78	0.172
624.98	0.172
625.19	0.172
625.39	0.172
625.59	0.171
625.79	0.171
625.99	0.171
626.19	0.171
626.39	0.170
626.59	0.170
626.79	0.170
626.99	0.169
627.19	0.169
627.40	0.170
627.60	0.169
627.80	0.169
628.00	0.169
628.20	0.168
628.40	0.168
628.60	0.168
628.80	0.167
629.00	0.167
629.20	0.166
629.40	0.166
629.60	0.165
629.80	0.165
630.00	0.165
630.20	0.165
630.41	0.164
630.61	0.164
630.81	0.164
631.01	0.164
631.21	0.163
631.41	0.163
631.61	0.163
631.81	0.163
632.01	0.163
632.21	0.163
632.41	0.161
632.61	0.161
632.81	0.161
633.01	0.162
633.21	0.161
633.41	0.162
633.61	0.161
633.81	0.161
634.01	0.160
634.21	0.160
634.41	0.160
634.61	0.160
634.81	0.159
635.01	0.159
635.22	0.159
