SpectraSuite Data File
++++++++++++++++++++++++++++++++++++
Date: Mon May 20 12:12:28 CDT 2013
User: Students
Dark Spectrum Present: Yes
Reference Spectrum Present: Yes
Number of Sampled Component Spectra: 1
Spectrometers: USB4H00887
Integration Time (usec): 60000 (USB4H00887)
Spectra Averaged: 5 (USB4H00887)
Boxcar Smoothing: 5 (USB4H00887)
Correct for Electrical Dark: No (USB4H00887)
Strobe/Lamp Enabled: No (USB4H00887)
Correct for Detector Non-linearity: No (USB4H00887)
Correct for Stray Light: No (USB4H00887)
Number of Pixels in Processed Spectrum: 3648
>>>>>Begin Processed Spectral Data<<<<<
345.83	-0.049
346.05	-0.049
346.26	-0.049
346.48	-0.000
346.70	-0.000
346.92	0.055
347.14	0.042
347.35	0.038
347.57	0.294
347.79	-0.240
348.01	-0.214
348.23	-0.354
348.44	-0.000
348.66	0.389
348.88	-0.483
349.10	-0.284
349.32	0.164
349.53	-0.066
349.75	-0.109
349.97	-0.055
350.19	0.007
350.41	0.025
350.62	-0.104
350.84	0.012
351.06	0.028
351.28	0.055
351.50	0.160
351.71	0.163
351.93	0.188
352.15	0.045
352.37	0.230
352.58	0.049
352.80	0.051
353.02	0.073
353.24	0.081
353.46	0.272
353.67	-0.081
353.89	0.019
354.11	0.030
354.33	0.040
354.54	0.058
354.76	0.113
354.98	0.159
355.20	0.154
355.41	0.084
355.63	0.157
355.85	0.078
356.07	1.496
356.28	0.076
356.50	0.144
356.72	0.053
356.94	0.166
357.15	0.243
357.37	-0.000
357.59	0.151
357.81	0.086
358.02	0.184
358.24	0.130
358.46	0.274
358.68	0.255
358.89	0.133
359.11	-0.000
359.33	0.100
359.55	-0.580
359.76	0.104
359.98	0.112
360.20	0.134
360.42	0.096
360.63	0.101
360.85	0.072
361.07	0.529
361.29	0.069
361.50	0.179
361.72	0.082
361.94	0.325
362.15	0.147
362.37	0.075
362.59	0.067
362.81	0.108
363.02	0.191
363.24	0.261
363.46	0.155
363.68	0.206
363.89	0.144
364.11	0.184
364.33	0.204
364.54	0.134
364.76	0.171
364.98	0.208
365.20	0.215
365.41	0.132
365.63	0.164
365.85	0.108
366.06	0.265
366.28	0.207
366.50	0.172
366.71	0.066
366.93	0.103
367.15	0.101
367.37	0.083
367.58	0.108
367.80	0.127
368.02	0.308
368.23	0.109
368.45	0.135
368.67	0.134
368.88	0.105
369.10	-0.000
369.32	0.091
369.53	0.050
369.75	0.096
369.97	0.268
370.19	0.165
370.40	0.074
370.62	0.259
370.84	0.103
371.05	0.510
371.27	0.165
371.49	0.193
371.70	0.245
371.92	0.385
372.14	0.144
372.35	0.156
372.57	0.182
372.79	0.531
373.00	0.101
373.22	0.145
373.44	0.167
373.65	0.120
373.87	0.159
374.09	0.916
374.30	0.165
374.52	0.184
374.74	0.124
374.95	0.541
375.17	0.139
375.39	-0.000
375.60	0.162
375.82	0.244
376.04	0.103
376.25	0.108
376.47	0.063
376.68	0.138
376.90	0.092
377.12	0.195
377.33	0.113
377.55	0.289
377.77	0.146
377.98	0.231
378.20	0.151
378.42	0.194
378.63	0.274
378.85	-0.000
379.07	0.185
379.28	0.786
379.50	0.405
379.71	0.222
379.93	0.151
380.15	0.209
380.36	0.305
380.58	0.186
380.80	0.487
381.01	0.146
381.23	0.114
381.44	0.120
381.66	0.150
381.88	0.192
382.09	-0.084
382.31	0.122
382.53	0.128
382.74	0.774
382.96	0.199
383.17	0.163
383.39	0.214
383.61	0.264
383.82	0.176
384.04	0.200
384.25	0.260
384.47	0.227
384.69	0.227
384.90	0.205
385.12	0.431
385.33	0.281
385.55	0.219
385.77	0.349
385.98	0.171
386.20	0.246
386.41	0.206
386.63	0.210
386.85	0.175
387.06	0.199
387.28	0.289
387.49	0.177
387.71	0.142
387.93	0.130
388.14	0.344
388.36	0.168
388.57	0.160
388.79	0.189
389.01	0.974
389.22	0.241
389.44	0.232
389.65	0.207
389.87	0.207
390.08	0.243
390.30	0.183
390.52	0.369
390.73	0.401
390.95	0.264
391.16	0.253
391.38	-0.000
391.59	0.298
391.81	0.243
392.03	0.221
392.24	0.249
392.46	0.213
392.67	0.197
392.89	0.266
393.10	0.369
393.32	0.237
393.53	0.259
393.75	0.176
393.97	0.191
394.18	0.258
394.40	0.227
394.61	0.238
394.83	0.214
395.04	0.256
395.26	0.169
395.47	0.269
395.69	0.242
395.91	0.273
396.12	0.339
396.34	0.342
396.55	0.210
396.77	0.304
396.98	1.146
397.20	0.326
397.41	0.363
397.63	0.265
397.84	0.230
398.06	0.214
398.27	0.218
398.49	0.247
398.71	0.182
398.92	0.231
399.14	0.296
399.35	0.396
399.57	0.395
399.78	0.272
400.00	0.259
400.21	0.335
400.43	0.261
400.64	0.264
400.86	0.549
401.07	0.322
401.29	0.276
401.50	0.293
401.72	0.398
401.93	0.245
402.15	0.285
402.36	0.267
402.58	0.218
402.79	0.249
403.01	0.395
403.22	0.316
403.44	0.217
403.65	0.338
403.87	0.394
404.08	0.312
404.30	0.517
404.51	0.287
404.73	0.347
404.94	0.287
405.16	0.295
405.37	0.238
405.59	0.395
405.80	0.252
406.02	0.295
406.23	0.284
406.45	0.310
406.66	0.314
406.88	0.217
407.09	0.307
407.31	0.270
407.52	0.315
407.74	0.268
407.95	0.308
408.17	0.303
408.38	0.322
408.60	0.215
408.81	0.342
409.03	0.269
409.24	0.263
409.45	0.300
409.67	0.280
409.88	0.257
410.10	0.308
410.31	0.272
410.53	0.260
410.74	0.340
410.96	0.346
411.17	0.373
411.39	0.301
411.60	0.291
411.82	0.326
412.03	0.318
412.24	0.308
412.46	0.428
412.67	0.364
412.89	0.349
413.10	0.356
413.32	0.321
413.53	0.358
413.75	0.365
413.96	0.294
414.17	0.385
414.39	0.393
414.60	0.331
414.82	0.413
415.03	0.329
415.25	0.375
415.46	0.262
415.68	0.354
415.89	0.591
416.10	0.500
416.32	0.289
416.53	0.337
416.75	0.322
416.96	0.382
417.18	0.345
417.39	0.330
417.60	0.329
417.82	0.470
418.03	0.421
418.25	0.351
418.46	0.372
418.67	0.349
418.89	0.374
419.10	0.389
419.32	0.492
419.53	0.455
419.75	0.402
419.96	0.356
420.17	0.419
420.39	0.396
420.60	0.411
420.82	0.481
421.03	0.395
421.24	0.330
421.46	0.358
421.67	0.387
421.89	0.341
422.10	0.351
422.31	0.348
422.53	0.454
422.74	0.362
422.96	0.296
423.17	0.324
423.38	0.383
423.60	0.337
423.81	0.402
424.03	0.354
424.24	0.379
424.45	0.384
424.67	0.378
424.88	0.351
425.09	0.377
425.31	0.361
425.52	0.380
425.74	0.431
425.95	0.465
426.16	0.374
426.38	0.433
426.59	0.410
426.80	0.463
427.02	0.486
427.23	0.392
427.45	0.483
427.66	0.471
427.87	0.378
428.09	0.389
428.30	0.428
428.51	0.420
428.73	0.446
428.94	0.399
429.15	0.390
429.37	0.379
429.58	0.399
429.79	0.379
430.01	0.434
430.22	0.432
430.44	0.442
430.65	0.407
430.86	0.439
431.08	0.431
431.29	0.404
431.50	0.467
431.72	0.579
431.93	0.489
432.14	0.384
432.36	0.418
432.57	0.425
432.78	0.437
433.00	0.404
433.21	0.399
433.42	0.480
433.64	0.431
433.85	0.475
434.06	0.400
434.28	0.420
434.49	0.429
434.70	0.435
434.92	0.442
435.13	0.465
435.34	0.473
435.56	0.447
435.77	0.447
435.98	0.528
436.20	0.461
436.41	0.407
436.62	0.401
436.83	0.449
437.05	0.491
437.26	0.444
437.47	0.409
437.69	0.439
437.90	0.408
438.11	0.397
438.33	0.438
438.54	0.448
438.75	0.537
438.97	0.530
439.18	0.425
439.39	0.446
439.60	0.473
439.82	0.449
440.03	0.417
440.24	0.557
440.46	0.457
440.67	0.437
440.88	0.461
441.10	0.441
441.31	0.438
441.52	0.469
441.73	0.507
441.95	0.468
442.16	0.442
442.37	0.625
442.58	0.444
442.80	0.430
443.01	0.530
443.22	0.499
443.44	0.438
443.65	0.499
443.86	0.494
444.07	0.520
444.29	0.461
444.50	0.552
444.71	0.443
444.92	0.421
445.14	0.511
445.35	0.533
445.56	0.444
445.78	0.504
445.99	0.501
446.20	0.450
446.41	0.499
446.63	0.501
446.84	0.481
447.05	0.486
447.26	0.554
447.48	0.494
447.69	0.472
447.90	0.519
448.11	0.478
448.33	0.495
448.54	0.503
448.75	0.514
448.96	0.521
449.18	0.536
449.39	0.495
449.60	0.487
449.81	0.558
450.03	0.499
450.24	0.534
450.45	0.510
450.66	0.498
450.87	0.516
451.09	0.492
451.30	0.476
451.51	0.516
451.72	0.521
451.94	0.530
452.15	0.558
452.36	0.492
452.57	0.504
452.78	0.501
453.00	0.523
453.21	0.499
453.42	0.486
453.63	0.538
453.85	0.524
454.06	0.518
454.27	0.581
454.48	0.539
454.69	0.504
454.91	0.537
455.12	0.489
455.33	0.533
455.54	0.547
455.75	0.533
455.97	0.546
456.18	0.540
456.39	0.547
456.60	0.563
456.81	0.532
457.03	0.535
457.24	0.537
457.45	0.581
457.66	0.554
457.87	0.532
458.09	0.539
458.30	0.496
458.51	0.564
458.72	0.575
458.93	0.577
459.15	0.521
459.36	0.558
459.57	0.569
459.78	0.590
459.99	0.540
460.20	0.516
460.42	0.562
460.63	0.539
460.84	0.528
461.05	0.536
461.26	0.568
461.47	0.534
461.69	0.558
461.90	0.576
462.11	0.557
462.32	0.590
462.53	0.559
462.74	0.607
462.96	0.547
463.17	0.543
463.38	0.566
463.59	0.622
463.80	0.541
464.01	0.554
464.23	0.599
464.44	0.580
464.65	0.583
464.86	0.593
465.07	0.595
465.28	0.576
465.49	0.586
465.71	0.564
465.92	0.580
466.13	0.603
466.34	0.569
466.55	0.599
466.76	0.578
466.97	0.591
467.19	0.588
467.40	0.607
467.61	0.611
467.82	0.572
468.03	0.566
468.24	0.603
468.45	0.620
468.66	0.614
468.88	0.614
469.09	0.616
469.30	0.636
469.51	0.599
469.72	0.617
469.93	0.604
470.14	0.596
470.35	0.639
470.57	0.616
470.78	0.588
470.99	0.652
471.20	0.625
471.41	0.604
471.62	0.635
471.83	0.622
472.04	0.638
472.25	0.660
472.47	0.620
472.68	0.621
472.89	0.626
473.10	0.647
473.31	0.622
473.52	0.652
473.73	0.663
473.94	0.624
474.15	0.639
474.36	0.643
474.57	0.655
474.79	0.642
475.00	0.642
475.21	0.635
475.42	0.679
475.63	0.633
475.84	0.649
476.05	0.654
476.26	0.639
476.47	0.655
476.68	0.676
476.89	0.641
477.10	0.665
477.32	0.659
477.53	0.684
477.74	0.645
477.95	0.664
478.16	0.639
478.37	0.660
478.58	0.664
478.79	0.670
479.00	0.669
479.21	0.650
479.42	0.669
479.63	0.671
479.84	0.654
480.05	0.655
480.26	0.669
480.47	0.678
480.69	0.678
480.90	0.659
481.11	0.658
481.32	0.688
481.53	0.660
481.74	0.686
481.95	0.672
482.16	0.679
482.37	0.685
482.58	0.667
482.79	0.675
483.00	0.688
483.21	0.662
483.42	0.649
483.63	0.684
483.84	0.695
484.05	0.690
484.26	0.676
484.47	0.676
484.68	0.659
484.89	0.663
485.10	0.685
485.31	0.675
485.52	0.679
485.73	0.680
485.94	0.698
486.15	0.675
486.37	0.682
486.58	0.666
486.79	0.671
487.00	0.692
487.21	0.690
487.42	0.690
487.63	0.693
487.84	0.703
488.05	0.701
488.26	0.682
488.47	0.685
488.68	0.700
488.89	0.690
489.10	0.687
489.31	0.693
489.52	0.708
489.73	0.693
489.94	0.710
490.15	0.689
490.36	0.708
490.57	0.687
490.78	0.679
490.99	0.697
491.20	0.731
491.41	0.713
491.62	0.686
491.83	0.702
492.04	0.700
492.25	0.703
492.45	0.703
492.66	0.714
492.87	0.710
493.08	0.705
493.29	0.699
493.50	0.695
493.71	0.700
493.92	0.700
494.13	0.705
494.34	0.714
494.55	0.718
494.76	0.733
494.97	0.729
495.18	0.714
495.39	0.721
495.60	0.698
495.81	0.699
496.02	0.708
496.23	0.706
496.44	0.723
496.65	0.720
496.86	0.721
497.07	0.732
497.28	0.732
497.49	0.707
497.70	0.709
497.91	0.720
498.12	0.711
498.32	0.732
498.53	0.723
498.74	0.718
498.95	0.728
499.16	0.708
499.37	0.711
499.58	0.715
499.79	0.729
500.00	0.726
500.21	0.738
500.42	0.714
500.63	0.714
500.84	0.723
501.05	0.713
501.26	0.726
501.46	0.744
501.67	0.727
501.88	0.728
502.09	0.718
502.30	0.722
502.51	0.743
502.72	0.724
502.93	0.730
503.14	0.739
503.35	0.727
503.56	0.725
503.77	0.740
503.97	0.730
504.18	0.728
504.39	0.744
504.60	0.728
504.81	0.741
505.02	0.735
505.23	0.736
505.44	0.728
505.65	0.730
505.86	0.722
506.07	0.750
506.27	0.732
506.48	0.735
506.69	0.728
506.90	0.739
507.11	0.738
507.32	0.728
507.53	0.731
507.74	0.728
507.95	0.735
508.15	0.739
508.36	0.740
508.57	0.745
508.78	0.738
508.99	0.737
509.20	0.724
509.41	0.736
509.62	0.730
509.82	0.729
510.03	0.734
510.24	0.734
510.45	0.742
510.66	0.738
510.87	0.737
511.08	0.719
511.29	0.739
511.49	0.730
511.70	0.750
511.91	0.720
512.12	0.719
512.33	0.734
512.54	0.741
512.75	0.735
512.95	0.748
513.16	0.744
513.37	0.734
513.58	0.750
513.79	0.733
514.00	0.736
514.20	0.744
514.41	0.737
514.62	0.722
514.83	0.740
515.04	0.734
515.25	0.723
515.46	0.728
515.66	0.728
515.87	0.734
516.08	0.722
516.29	0.732
516.50	0.723
516.71	0.721
516.91	0.725
517.12	0.734
517.33	0.729
517.54	0.723
517.75	0.723
517.95	0.729
518.16	0.734
518.37	0.719
518.58	0.722
518.79	0.710
519.00	0.725
519.20	0.729
519.41	0.715
519.62	0.722
519.83	0.726
520.04	0.712
520.24	0.710
520.45	0.714
520.66	0.724
520.87	0.706
521.08	0.704
521.28	0.705
521.49	0.712
521.70	0.699
521.91	0.706
522.12	0.698
522.32	0.707
522.53	0.698
522.74	0.694
522.95	0.698
523.16	0.698
523.36	0.702
523.57	0.692
523.78	0.689
523.99	0.691
524.20	0.687
524.40	0.692
524.61	0.694
524.82	0.682
525.03	0.683
525.23	0.683
525.44	0.676
525.65	0.676
525.86	0.687
526.06	0.674
526.27	0.674
526.48	0.678
526.69	0.670
526.90	0.673
527.10	0.688
527.31	0.667
527.52	0.664
527.73	0.661
527.93	0.665
528.14	0.667
528.35	0.662
528.56	0.662
528.76	0.658
528.97	0.652
529.18	0.646
529.39	0.647
529.59	0.648
529.80	0.662
530.01	0.647
530.22	0.646
530.42	0.631
530.63	0.640
530.84	0.628
531.05	0.635
531.25	0.637
531.46	0.632
531.67	0.621
531.88	0.631
532.08	0.628
532.29	0.625
532.50	0.621
532.70	0.617
532.91	0.611
533.12	0.613
533.33	0.625
533.53	0.610
533.74	0.610
533.95	0.612
534.15	0.606
534.36	0.605
534.57	0.597
534.78	0.599
534.98	0.604
535.19	0.587
535.40	0.588
535.60	0.597
535.81	0.585
536.02	0.586
536.23	0.582
536.43	0.583
536.64	0.576
536.85	0.580
537.05	0.585
537.26	0.572
537.47	0.575
537.67	0.569
537.88	0.566
538.09	0.570
538.30	0.563
538.50	0.557
538.71	0.564
538.92	0.556
539.12	0.553
539.33	0.551
539.54	0.550
539.74	0.553
539.95	0.547
540.16	0.547
540.36	0.542
540.57	0.543
540.78	0.539
540.98	0.539
541.19	0.537
541.40	0.531
541.60	0.537
541.81	0.534
542.02	0.534
542.22	0.528
542.43	0.524
542.64	0.522
542.84	0.521
543.05	0.515
543.26	0.515
543.46	0.518
543.67	0.517
543.88	0.514
544.08	0.508
544.29	0.505
544.50	0.505
544.70	0.506
544.91	0.501
545.12	0.502
545.32	0.500
545.53	0.504
545.74	0.497
545.94	0.495
546.15	0.494
546.35	0.492
546.56	0.490
546.77	0.487
546.97	0.486
547.18	0.481
547.39	0.481
547.59	0.480
547.80	0.477
548.01	0.481
548.21	0.478
548.42	0.472
548.62	0.471
548.83	0.469
549.04	0.467
549.24	0.462
549.45	0.462
549.65	0.460
549.86	0.457
550.07	0.456
550.27	0.454
550.48	0.460
550.69	0.450
550.89	0.451
551.10	0.449
551.30	0.448
551.51	0.448
551.72	0.441
551.92	0.443
552.13	0.443
552.33	0.443
552.54	0.440
552.75	0.435
552.95	0.436
553.16	0.433
553.36	0.432
553.57	0.431
553.78	0.430
553.98	0.430
554.19	0.424
554.39	0.421
554.60	0.424
554.80	0.425
555.01	0.419
555.22	0.421
555.42	0.418
555.63	0.414
555.83	0.417
556.04	0.414
556.25	0.416
556.45	0.409
556.66	0.409
556.86	0.411
557.07	0.410
557.27	0.409
557.48	0.405
557.68	0.404
557.89	0.405
558.10	0.402
558.30	0.399
558.51	0.397
558.71	0.396
558.92	0.393
559.12	0.395
559.33	0.397
559.54	0.393
559.74	0.390
559.95	0.389
560.15	0.388
560.36	0.387
560.56	0.383
560.77	0.384
560.97	0.384
561.18	0.380
561.38	0.379
561.59	0.382
561.79	0.379
562.00	0.377
562.21	0.375
562.41	0.375
562.62	0.373
562.82	0.372
563.03	0.370
563.23	0.369
563.44	0.369
563.64	0.368
563.85	0.369
564.05	0.364
564.26	0.364
564.46	0.363
564.67	0.363
564.87	0.361
565.08	0.359
565.28	0.359
565.49	0.359
565.69	0.357
565.90	0.354
566.10	0.356
566.31	0.352
566.51	0.353
566.72	0.355
566.92	0.350
567.13	0.349
567.33	0.349
567.54	0.348
567.74	0.347
567.95	0.344
568.15	0.346
568.36	0.345
568.56	0.344
568.77	0.340
568.97	0.339
569.18	0.339
569.38	0.337
569.59	0.338
569.79	0.337
570.00	0.335
570.20	0.335
570.41	0.333
570.61	0.332
570.82	0.334
571.02	0.331
571.23	0.334
571.43	0.330
571.64	0.330
571.84	0.329
572.05	0.328
572.25	0.327
572.45	0.326
572.66	0.324
572.86	0.323
573.07	0.321
573.27	0.321
573.48	0.320
573.68	0.317
573.89	0.317
574.09	0.318
574.30	0.316
574.50	0.315
574.70	0.316
574.91	0.314
575.11	0.314
575.32	0.314
575.52	0.311
575.73	0.311
575.93	0.311
576.14	0.310
576.34	0.308
576.54	0.308
576.75	0.307
576.95	0.306
577.16	0.304
577.36	0.303
577.57	0.303
577.77	0.301
577.97	0.299
578.18	0.301
578.38	0.298
578.59	0.297
578.79	0.295
579.00	0.296
579.20	0.295
579.40	0.294
579.61	0.294
579.81	0.293
580.02	0.291
580.22	0.291
580.42	0.290
580.63	0.291
580.83	0.290
581.04	0.289
581.24	0.289
581.45	0.287
581.65	0.287
581.85	0.286
582.06	0.285
582.26	0.285
582.47	0.284
582.67	0.284
582.87	0.283
583.08	0.282
583.28	0.282
583.48	0.280
583.69	0.278
583.89	0.279
584.10	0.280
584.30	0.277
584.50	0.276
584.71	0.275
584.91	0.275
585.12	0.274
585.32	0.275
585.52	0.273
585.73	0.272
585.93	0.272
586.13	0.271
586.34	0.270
586.54	0.270
586.75	0.269
586.95	0.268
587.15	0.268
587.36	0.267
587.56	0.266
587.76	0.266
587.97	0.265
588.17	0.264
588.37	0.265
588.58	0.265
588.78	0.262
588.98	0.264
589.19	0.262
589.39	0.260
589.60	0.262
589.80	0.260
590.00	0.259
590.21	0.260
590.41	0.258
590.61	0.258
590.82	0.257
591.02	0.257
591.22	0.256
591.43	0.256
591.63	0.255
591.83	0.254
592.04	0.253
592.24	0.254
592.44	0.251
592.65	0.250
592.85	0.251
593.05	0.251
593.26	0.249
593.46	0.249
593.66	0.249
593.86	0.248
594.07	0.247
594.27	0.247
594.47	0.246
594.68	0.245
594.88	0.246
595.08	0.245
595.29	0.246
595.49	0.244
595.69	0.244
595.90	0.243
596.10	0.244
596.30	0.243
596.50	0.242
596.71	0.241
596.91	0.241
597.11	0.240
597.32	0.240
597.52	0.239
597.72	0.239
597.93	0.239
598.13	0.237
598.33	0.237
598.53	0.236
598.74	0.235
598.94	0.235
599.14	0.234
599.35	0.234
599.55	0.234
599.75	0.233
599.95	0.232
600.16	0.233
600.36	0.232
600.56	0.233
600.76	0.232
600.97	0.231
601.17	0.231
601.37	0.231
601.58	0.231
601.78	0.231
601.98	0.230
602.18	0.228
602.39	0.228
602.59	0.229
602.79	0.228
602.99	0.227
603.20	0.226
603.40	0.226
603.60	0.226
603.80	0.226
604.01	0.225
604.21	0.225
604.41	0.224
604.61	0.223
604.82	0.223
605.02	0.223
605.22	0.222
605.42	0.222
605.62	0.223
605.83	0.221
606.03	0.220
606.23	0.221
606.43	0.220
606.64	0.220
606.84	0.219
607.04	0.219
607.24	0.220
607.45	0.220
607.65	0.218
607.85	0.218
608.05	0.217
608.25	0.216
608.46	0.216
608.66	0.216
608.86	0.215
609.06	0.214
609.26	0.213
609.47	0.214
609.67	0.213
609.87	0.214
610.07	0.213
610.28	0.212
610.48	0.212
610.68	0.213
610.88	0.211
611.08	0.212
611.29	0.211
611.49	0.210
611.69	0.211
611.89	0.209
612.09	0.209
612.29	0.208
612.50	0.208
612.70	0.208
612.90	0.207
613.10	0.207
613.30	0.206
613.51	0.207
613.71	0.206
613.91	0.211
614.11	0.206
614.31	0.206
614.51	0.206
614.72	0.205
614.92	0.205
615.12	0.205
615.32	0.205
615.52	0.204
615.72	0.205
615.93	0.204
616.13	0.203
616.33	0.203
616.53	0.203
616.73	0.203
616.93	0.201
617.14	0.202
617.34	0.202
617.54	0.202
617.74	0.202
617.94	0.201
618.14	0.201
618.34	0.200
618.55	0.199
618.75	0.200
618.95	0.199
619.15	0.200
619.35	0.199
619.55	0.198
619.75	0.199
619.96	0.197
620.16	0.198
620.36	0.197
620.56	0.197
620.76	0.197
620.96	0.197
621.16	0.197
621.36	0.197
621.57	0.197
621.77	0.197
621.97	0.196
622.17	0.196
622.37	0.196
622.57	0.196
622.77	0.195
622.97	0.194
623.18	0.194
623.38	0.195
623.58	0.194
623.78	0.193
623.98	0.193
624.18	0.192
624.38	0.192
624.58	0.192
624.78	0.193
624.98	0.193
625.19	0.193
625.39	0.193
625.59	0.192
625.79	0.192
625.99	0.192
626.19	0.192
626.39	0.192
626.59	0.192
626.79	0.192
626.99	0.191
627.19	0.191
627.40	0.191
627.60	0.190
627.80	0.190
628.00	0.190
628.20	0.189
628.40	0.189
628.60	0.189
628.80	0.188
629.00	0.188
629.20	0.187
629.40	0.188
629.60	0.186
629.80	0.186
630.00	0.186
630.20	0.186
630.41	0.185
630.61	0.184
630.81	0.184
631.01	0.184
631.21	0.184
631.41	0.184
631.61	0.184
631.81	0.184
632.01	0.183
632.21	0.184
632.41	0.182
632.61	0.182
632.81	0.182
633.01	0.183
633.21	0.182
633.41	0.183
633.61	0.181
633.81	0.181
634.01	0.181
634.21	0.181
634.41	0.180
634.61	0.181
634.81	0.180
635.01	0.179
635.22	0.180
