SpectraSuite Data File
++++++++++++++++++++++++++++++++++++
Date: Mon May 20 12:13:35 CDT 2013
User: Students
Dark Spectrum Present: Yes
Reference Spectrum Present: Yes
Number of Sampled Component Spectra: 1
Spectrometers: USB4H00887
Integration Time (usec): 60000 (USB4H00887)
Spectra Averaged: 5 (USB4H00887)
Boxcar Smoothing: 5 (USB4H00887)
Correct for Electrical Dark: No (USB4H00887)
Strobe/Lamp Enabled: No (USB4H00887)
Correct for Detector Non-linearity: No (USB4H00887)
Correct for Stray Light: No (USB4H00887)
Number of Pixels in Processed Spectrum: 3648
>>>>>Begin Processed Spectral Data<<<<<
345.83	0.972
346.05	0.972
346.26	0.972
346.48	-0.000
346.70	-0.013
346.92	0.079
347.14	0.090
347.35	0.105
347.57	-0.000
347.79	-0.408
348.01	-0.271
348.23	-0.409
348.44	-0.000
348.66	0.436
348.88	-0.454
349.10	-0.215
349.32	0.101
349.53	-0.026
349.75	-0.005
349.97	0.015
350.19	0.047
350.41	0.059
350.62	-0.120
350.84	0.002
351.06	-0.009
351.28	-0.024
351.50	-0.200
351.71	-0.113
351.93	-0.103
352.15	-0.037
352.37	-0.133
352.58	-0.017
352.80	-0.008
353.02	-0.002
353.24	0.033
353.46	0.324
353.67	-0.137
353.89	0.050
354.11	0.054
354.33	0.080
354.54	0.115
354.76	0.189
354.98	0.180
355.20	0.130
355.41	0.073
355.63	0.094
355.85	0.041
356.07	0.262
356.28	0.052
356.50	0.094
356.72	0.030
356.94	0.097
357.15	0.113
357.37	-0.000
357.59	0.099
357.81	0.052
358.02	0.103
358.24	0.081
358.46	0.182
358.68	0.186
358.89	0.106
359.11	-0.000
359.33	0.093
359.55	-0.576
359.76	0.123
359.98	0.144
360.20	0.156
360.42	0.108
360.63	0.100
360.85	0.057
361.07	0.214
361.29	0.032
361.50	0.109
361.72	0.052
361.94	0.208
362.15	0.124
362.37	0.068
362.59	0.073
362.81	0.145
363.02	0.256
363.24	0.404
363.46	0.211
363.68	0.288
363.89	0.188
364.11	0.254
364.33	0.382
364.54	0.177
364.76	0.253
364.98	0.245
365.20	0.289
365.41	0.181
365.63	0.235
365.85	0.153
366.06	0.523
366.28	0.487
366.50	0.262
366.71	0.106
366.93	0.165
367.15	0.137
367.37	0.141
367.58	0.160
367.80	0.177
368.02	0.384
368.23	0.153
368.45	0.164
368.67	0.140
368.88	0.149
369.10	-0.000
369.32	0.140
369.53	0.081
369.75	0.114
369.97	0.296
370.19	0.194
370.40	0.093
370.62	0.263
370.84	0.091
371.05	0.549
371.27	0.156
371.49	0.164
371.70	0.202
371.92	0.300
372.14	0.135
372.35	0.142
372.57	0.159
372.79	0.462
373.00	0.106
373.22	0.170
373.44	0.159
373.65	0.115
373.87	0.174
374.09	0.613
374.30	0.127
374.52	0.146
374.74	0.102
374.95	0.486
375.17	0.133
375.39	-0.000
375.60	0.186
375.82	0.381
376.04	0.161
376.25	0.195
376.47	0.121
376.68	0.358
376.90	0.180
377.12	0.420
377.33	0.185
377.55	0.431
377.77	0.205
377.98	0.292
378.20	0.148
378.42	0.182
378.63	0.241
378.85	-0.000
379.07	0.137
379.28	0.511
379.50	0.312
379.71	0.151
379.93	0.102
380.15	0.129
380.36	0.181
380.58	0.110
380.80	0.249
381.01	0.077
381.23	0.067
381.44	0.094
381.66	0.116
381.88	0.147
382.09	-0.077
382.31	0.111
382.53	0.112
382.74	0.556
382.96	0.167
383.17	0.135
383.39	0.178
383.61	0.243
383.82	0.159
384.04	0.185
384.25	0.229
384.47	0.205
384.69	0.215
384.90	0.220
385.12	0.435
385.33	0.304
385.55	0.237
385.77	0.393
385.98	0.206
386.20	0.287
386.41	0.239
386.63	0.267
386.85	0.240
387.06	0.288
387.28	0.418
387.49	0.268
387.71	0.194
387.93	0.169
388.14	0.502
388.36	0.197
388.57	0.192
388.79	0.205
389.01	1.402
389.22	0.233
389.44	0.206
389.65	0.173
389.87	0.170
390.08	0.213
390.30	0.179
390.52	0.334
390.73	0.304
390.95	0.204
391.16	0.231
391.38	-0.000
391.59	0.265
391.81	0.230
392.03	0.218
392.24	0.242
392.46	0.188
392.67	0.164
392.89	0.238
393.10	0.394
393.32	0.283
393.53	0.305
393.75	0.197
393.97	0.228
394.18	0.300
394.40	0.263
394.61	0.294
394.83	0.261
395.04	0.305
395.26	0.198
395.47	0.273
395.69	0.229
395.91	0.248
396.12	0.308
396.34	0.306
396.55	0.206
396.77	0.311
396.98	1.254
397.20	0.389
397.41	0.434
397.63	0.301
397.84	0.287
398.06	0.254
398.27	0.256
398.49	0.290
398.71	0.214
398.92	0.256
399.14	0.316
399.35	0.401
399.57	0.347
399.78	0.235
400.00	0.230
400.21	0.309
400.43	0.256
400.64	0.273
400.86	0.579
401.07	0.335
401.29	0.285
401.50	0.313
401.72	0.454
401.93	0.309
402.15	0.392
402.36	0.356
402.58	0.283
402.79	0.324
403.01	0.564
403.22	0.429
403.44	0.280
403.65	0.473
403.87	0.513
404.08	0.390
404.30	0.622
404.51	0.317
404.73	0.394
404.94	0.335
405.16	0.334
405.37	0.260
405.59	0.468
405.80	0.302
406.02	0.368
406.23	0.364
406.45	0.414
406.66	0.433
406.88	0.300
407.09	0.457
407.31	0.362
407.52	0.467
407.74	0.373
407.95	0.438
408.17	0.396
408.38	0.412
408.60	0.277
408.81	0.470
409.03	0.350
409.24	0.349
409.45	0.410
409.67	0.405
409.88	0.358
410.10	0.450
410.31	0.375
410.53	0.367
410.74	0.512
410.96	0.508
411.17	0.527
411.39	0.408
411.60	0.378
411.82	0.423
412.03	0.406
412.24	0.382
412.46	0.565
412.67	0.467
412.89	0.458
413.10	0.461
413.32	0.415
413.53	0.471
413.75	0.499
413.96	0.367
414.17	0.500
414.39	0.485
414.60	0.399
414.82	0.525
415.03	0.416
415.25	0.468
415.46	0.322
415.68	0.448
415.89	0.801
416.10	0.643
416.32	0.366
416.53	0.423
416.75	0.406
416.96	0.488
417.18	0.427
417.39	0.406
417.60	0.410
417.82	0.597
418.03	0.529
418.25	0.452
418.46	0.466
418.67	0.429
418.89	0.459
419.10	0.470
419.32	0.640
419.53	0.571
419.75	0.486
419.96	0.423
420.17	0.515
420.39	0.481
420.60	0.486
420.82	0.606
421.03	0.495
421.24	0.419
421.46	0.478
421.67	0.519
421.89	0.447
422.10	0.475
422.31	0.479
422.53	0.664
422.74	0.494
422.96	0.399
423.17	0.437
423.38	0.527
423.60	0.440
423.81	0.536
424.03	0.471
424.24	0.524
424.45	0.528
424.67	0.520
424.88	0.481
425.09	0.519
425.31	0.487
425.52	0.518
425.74	0.592
425.95	0.650
426.16	0.503
426.38	0.574
426.59	0.526
426.80	0.597
427.02	0.612
427.23	0.481
427.45	0.617
427.66	0.594
427.87	0.464
428.09	0.489
428.30	0.550
428.51	0.538
428.73	0.590
428.94	0.531
429.15	0.521
429.37	0.505
429.58	0.527
429.79	0.497
430.01	0.595
430.22	0.591
430.44	0.606
430.65	0.535
430.86	0.568
431.08	0.557
431.29	0.504
431.50	0.600
431.72	0.793
431.93	0.641
432.14	0.485
432.36	0.536
432.57	0.544
432.78	0.566
433.00	0.526
433.21	0.524
433.42	0.650
433.64	0.569
433.85	0.638
434.06	0.523
434.28	0.553
434.49	0.570
434.70	0.583
434.92	0.597
435.13	0.636
435.34	0.642
435.56	0.612
435.77	0.606
435.98	0.786
436.20	0.647
436.41	0.560
436.62	0.551
436.83	0.629
437.05	0.709
437.26	0.615
437.47	0.544
437.69	0.596
437.90	0.545
438.11	0.541
438.33	0.593
438.54	0.618
438.75	0.788
438.97	0.776
439.18	0.580
439.39	0.604
439.60	0.659
439.82	0.623
440.03	0.574
440.24	0.839
440.46	0.619
440.67	0.592
440.88	0.633
441.10	0.587
441.31	0.587
441.52	0.627
441.73	0.703
441.95	0.628
442.16	0.580
442.37	0.895
442.58	0.573
442.80	0.565
443.01	0.733
443.22	0.671
443.44	0.570
443.65	0.664
443.86	0.670
444.07	0.721
444.29	0.626
444.50	0.790
444.71	0.606
444.92	0.571
445.14	0.714
445.35	0.755
445.56	0.596
445.78	0.699
445.99	0.700
446.20	0.599
446.41	0.669
446.63	0.664
446.84	0.630
447.05	0.630
447.26	0.747
447.48	0.645
447.69	0.608
447.90	0.693
448.11	0.620
448.33	0.646
448.54	0.672
448.75	0.701
448.96	0.712
449.18	0.750
449.39	0.670
449.60	0.650
449.81	0.780
450.03	0.678
450.24	0.732
450.45	0.696
450.66	0.684
450.87	0.712
451.09	0.665
451.30	0.641
451.51	0.710
451.72	0.722
451.94	0.739
452.15	0.802
452.36	0.677
452.57	0.687
452.78	0.681
453.00	0.709
453.21	0.666
453.42	0.638
453.63	0.731
453.85	0.700
454.06	0.694
454.27	0.815
454.48	0.735
454.69	0.663
454.91	0.731
455.12	0.646
455.33	0.717
455.54	0.734
455.75	0.717
455.97	0.739
456.18	0.730
456.39	0.736
456.60	0.755
456.81	0.699
457.03	0.713
457.24	0.714
457.45	0.792
457.66	0.742
457.87	0.704
458.09	0.722
458.30	0.642
458.51	0.757
458.72	0.781
458.93	0.791
459.15	0.696
459.36	0.760
459.57	0.786
459.78	0.833
459.99	0.744
460.20	0.708
460.42	0.781
460.63	0.740
460.84	0.723
461.05	0.742
461.26	0.798
461.47	0.724
461.69	0.769
461.90	0.797
462.11	0.756
462.32	0.813
462.53	0.754
462.74	0.844
462.96	0.733
463.17	0.723
463.38	0.759
463.59	0.857
463.80	0.720
464.01	0.735
464.23	0.810
464.44	0.777
464.65	0.785
464.86	0.809
465.07	0.812
465.28	0.784
465.49	0.809
465.71	0.769
465.92	0.805
466.13	0.848
466.34	0.797
466.55	0.848
466.76	0.810
466.97	0.833
467.19	0.814
467.40	0.856
467.61	0.857
467.82	0.776
468.03	0.757
468.24	0.827
468.45	0.858
468.66	0.839
468.88	0.846
469.09	0.851
469.30	0.893
469.51	0.829
469.72	0.860
469.93	0.831
470.14	0.814
470.35	0.900
470.57	0.853
470.78	0.798
470.99	0.923
471.20	0.868
471.41	0.828
471.62	0.879
471.83	0.851
472.04	0.881
472.25	0.926
472.47	0.838
472.68	0.841
472.89	0.841
473.10	0.877
473.31	0.831
473.52	0.884
473.73	0.903
473.94	0.828
474.15	0.849
474.36	0.851
474.57	0.874
474.79	0.855
475.00	0.858
475.21	0.844
475.42	0.929
475.63	0.834
475.84	0.865
476.05	0.874
476.26	0.850
476.47	0.882
476.68	0.926
476.89	0.862
477.10	0.910
477.32	0.897
477.53	0.947
477.74	0.873
477.95	0.914
478.16	0.864
478.37	0.904
478.58	0.907
478.79	0.919
479.00	0.918
479.21	0.876
479.42	0.916
479.63	0.923
479.84	0.893
480.05	0.890
480.26	0.919
480.47	0.933
480.69	0.934
480.90	0.902
481.11	0.897
481.32	0.949
481.53	0.895
481.74	0.941
481.95	0.907
482.16	0.919
482.37	0.929
482.58	0.898
482.79	0.918
483.00	0.944
483.21	0.894
483.42	0.872
483.63	0.948
483.84	0.972
484.05	0.962
484.26	0.936
484.47	0.935
484.68	0.901
484.89	0.910
485.10	0.955
485.31	0.932
485.52	0.939
485.73	0.938
485.94	0.975
486.15	0.928
486.37	0.947
486.58	0.915
486.79	0.930
487.00	0.973
487.21	0.962
487.42	0.956
487.63	0.961
487.84	0.981
488.05	0.978
488.26	0.940
488.47	0.945
488.68	0.967
488.89	0.944
489.10	0.936
489.31	0.947
489.52	0.978
489.73	0.949
489.94	0.984
490.15	0.943
490.36	0.982
490.57	0.938
490.78	0.923
490.99	0.958
491.20	1.030
491.41	0.987
491.62	0.932
491.83	0.960
492.04	0.955
492.25	0.961
492.45	0.956
492.66	0.978
492.87	0.967
493.08	0.956
493.29	0.941
493.50	0.931
493.71	0.943
493.92	0.943
494.13	0.956
494.34	0.974
494.55	0.981
494.76	1.012
494.97	1.004
495.18	0.972
495.39	0.985
495.60	0.942
495.81	0.942
496.02	0.959
496.23	0.953
496.44	0.981
496.65	0.972
496.86	0.974
497.07	0.996
497.28	0.994
497.49	0.947
497.70	0.949
497.91	0.969
498.12	0.954
498.32	0.990
498.53	0.976
498.74	0.967
498.95	0.992
499.16	0.953
499.37	0.957
499.58	0.967
499.79	0.993
500.00	0.988
500.21	1.016
500.42	0.966
500.63	0.968
500.84	0.986
501.05	0.966
501.26	0.990
501.46	1.025
501.67	0.991
501.88	0.991
502.09	0.970
502.30	0.976
502.51	1.014
502.72	0.972
502.93	0.988
503.14	1.007
503.35	0.981
503.56	0.977
503.77	1.004
503.97	0.983
504.18	0.981
504.39	1.013
504.60	0.986
504.81	1.012
505.02	1.003
505.23	1.002
505.44	0.987
505.65	0.993
505.86	0.976
506.07	1.035
506.27	0.994
506.48	1.001
506.69	0.986
506.90	1.006
507.11	1.006
507.32	0.985
507.53	0.995
507.74	0.987
507.95	1.001
508.15	1.006
508.36	1.011
508.57	1.025
508.78	1.008
508.99	1.008
509.20	0.985
509.41	1.007
509.62	0.996
509.82	0.990
510.03	0.998
510.24	0.998
510.45	1.018
510.66	1.009
510.87	1.004
511.08	0.967
511.29	1.004
511.49	0.983
511.70	1.026
511.91	0.967
512.12	0.966
512.33	0.996
512.54	1.009
512.75	0.995
512.95	1.020
513.16	1.013
513.37	0.993
513.58	1.028
513.79	0.994
514.00	0.999
514.20	1.015
514.41	1.005
514.62	0.975
514.83	1.012
515.04	1.004
515.25	0.983
515.46	0.993
515.66	0.994
515.87	1.005
516.08	0.976
516.29	0.999
516.50	0.983
516.71	0.977
516.91	0.986
517.12	1.001
517.33	0.987
517.54	0.975
517.75	0.979
517.95	0.991
518.16	1.002
518.37	0.972
518.58	0.976
518.79	0.951
519.00	0.979
519.20	0.988
519.41	0.966
519.62	0.985
519.83	0.993
520.04	0.960
520.24	0.957
520.45	0.965
520.66	0.986
520.87	0.952
521.08	0.949
521.28	0.953
521.49	0.966
521.70	0.940
521.91	0.952
522.12	0.934
522.32	0.953
522.53	0.936
522.74	0.927
522.95	0.935
523.16	0.938
523.36	0.946
523.57	0.930
523.78	0.925
523.99	0.927
524.20	0.921
524.40	0.932
524.61	0.938
524.82	0.916
525.03	0.921
525.23	0.921
525.44	0.906
525.65	0.905
525.86	0.924
526.06	0.898
526.27	0.899
526.48	0.908
526.69	0.892
526.90	0.895
527.10	0.926
527.31	0.884
527.52	0.879
527.73	0.872
527.93	0.883
528.14	0.887
528.35	0.879
528.56	0.880
528.76	0.874
528.97	0.867
529.18	0.859
529.39	0.858
529.59	0.861
529.80	0.888
530.01	0.863
530.22	0.860
530.42	0.834
530.63	0.850
530.84	0.828
531.05	0.841
531.25	0.844
531.46	0.837
531.67	0.818
531.88	0.834
532.08	0.829
532.29	0.824
532.50	0.817
532.70	0.810
532.91	0.801
533.12	0.805
533.33	0.826
533.53	0.798
533.74	0.797
533.95	0.803
534.15	0.792
534.36	0.793
534.57	0.777
534.78	0.779
534.98	0.789
535.19	0.761
535.40	0.763
535.60	0.779
535.81	0.761
536.02	0.764
536.23	0.757
536.43	0.759
536.64	0.747
536.85	0.754
537.05	0.763
537.26	0.741
537.47	0.745
537.67	0.734
537.88	0.730
538.09	0.737
538.30	0.727
538.50	0.717
538.71	0.728
538.92	0.714
539.12	0.711
539.33	0.705
539.54	0.706
539.74	0.710
539.95	0.701
540.16	0.699
540.36	0.691
540.57	0.691
540.78	0.684
540.98	0.682
541.19	0.681
541.40	0.670
541.60	0.680
541.81	0.675
542.02	0.674
542.22	0.665
542.43	0.660
542.64	0.655
542.84	0.654
543.05	0.647
543.26	0.647
543.46	0.650
543.67	0.649
543.88	0.644
544.08	0.634
544.29	0.629
544.50	0.629
544.70	0.629
544.91	0.621
545.12	0.622
545.32	0.618
545.53	0.621
545.74	0.610
545.94	0.607
546.15	0.606
546.35	0.603
546.56	0.600
546.77	0.597
546.97	0.594
547.18	0.588
547.39	0.588
547.59	0.587
547.80	0.584
548.01	0.588
548.21	0.584
548.42	0.576
548.62	0.575
548.83	0.572
549.04	0.569
549.24	0.562
549.45	0.561
549.65	0.557
549.86	0.553
550.07	0.552
550.27	0.550
550.48	0.557
550.69	0.543
550.89	0.544
551.10	0.540
551.30	0.539
551.51	0.539
551.72	0.529
551.92	0.531
552.13	0.530
552.33	0.531
552.54	0.525
552.75	0.518
552.95	0.520
553.16	0.515
553.36	0.513
553.57	0.511
553.78	0.509
553.98	0.510
554.19	0.502
554.39	0.499
554.60	0.501
554.80	0.501
555.01	0.495
555.22	0.496
555.42	0.493
555.63	0.487
555.83	0.490
556.04	0.484
556.25	0.486
556.45	0.477
556.66	0.475
556.86	0.478
557.07	0.476
557.27	0.475
557.48	0.470
557.68	0.468
557.89	0.468
558.10	0.465
558.30	0.462
558.51	0.460
558.71	0.458
558.92	0.453
559.12	0.454
559.33	0.457
559.54	0.452
559.74	0.447
559.95	0.445
560.15	0.445
560.36	0.443
560.56	0.437
560.77	0.438
560.97	0.437
561.18	0.432
561.38	0.433
561.59	0.435
561.79	0.431
562.00	0.429
562.21	0.425
562.41	0.424
562.62	0.423
562.82	0.422
563.03	0.419
563.23	0.418
563.44	0.419
563.64	0.414
563.85	0.416
564.05	0.409
564.26	0.409
564.46	0.408
564.67	0.410
564.87	0.405
565.08	0.403
565.28	0.402
565.49	0.403
565.69	0.400
565.90	0.398
566.10	0.400
566.31	0.394
566.51	0.396
566.72	0.396
566.92	0.389
567.13	0.388
567.33	0.387
567.54	0.386
567.74	0.385
567.95	0.380
568.15	0.381
568.36	0.380
568.56	0.379
568.77	0.374
568.97	0.372
569.18	0.373
569.38	0.371
569.59	0.372
569.79	0.370
570.00	0.367
570.20	0.367
570.41	0.365
570.61	0.364
570.82	0.365
571.02	0.362
571.23	0.364
571.43	0.359
571.64	0.358
571.84	0.357
572.05	0.355
572.25	0.354
572.45	0.352
572.66	0.349
572.86	0.349
573.07	0.347
573.27	0.347
573.48	0.346
573.68	0.342
573.89	0.341
574.09	0.342
574.30	0.340
574.50	0.338
574.70	0.339
574.91	0.337
575.11	0.336
575.32	0.336
575.52	0.333
575.73	0.333
575.93	0.333
576.14	0.332
576.34	0.330
576.54	0.328
576.75	0.326
576.95	0.326
577.16	0.324
577.36	0.322
577.57	0.322
577.77	0.320
577.97	0.316
578.18	0.318
578.38	0.315
578.59	0.313
578.79	0.311
579.00	0.313
579.20	0.311
579.40	0.309
579.61	0.309
579.81	0.307
580.02	0.305
580.22	0.305
580.42	0.304
580.63	0.304
580.83	0.302
581.04	0.301
581.24	0.300
581.45	0.299
581.65	0.299
581.85	0.297
582.06	0.295
582.26	0.295
582.47	0.294
582.67	0.293
582.87	0.292
583.08	0.290
583.28	0.290
583.48	0.288
583.69	0.285
583.89	0.285
584.10	0.286
584.30	0.284
584.50	0.283
584.71	0.282
584.91	0.282
585.12	0.280
585.32	0.281
585.52	0.279
585.73	0.278
585.93	0.277
586.13	0.277
586.34	0.276
586.54	0.275
586.75	0.273
586.95	0.273
587.15	0.273
587.36	0.271
587.56	0.270
587.76	0.269
587.97	0.269
588.17	0.267
588.37	0.267
588.58	0.267
588.78	0.264
588.98	0.265
589.19	0.263
589.39	0.261
589.60	0.263
589.80	0.261
590.00	0.260
590.21	0.260
590.41	0.258
590.61	0.258
590.82	0.257
591.02	0.257
591.22	0.255
591.43	0.256
591.63	0.254
591.83	0.254
592.04	0.252
592.24	0.253
592.44	0.250
592.65	0.249
592.85	0.249
593.05	0.250
593.26	0.248
593.46	0.247
593.66	0.247
593.86	0.246
594.07	0.244
594.27	0.244
594.47	0.243
594.68	0.242
594.88	0.243
595.08	0.242
595.29	0.242
595.49	0.240
595.69	0.239
595.90	0.238
596.10	0.238
596.30	0.238
596.50	0.237
596.71	0.236
596.91	0.235
597.11	0.235
597.32	0.235
597.52	0.234
597.72	0.233
597.93	0.233
598.13	0.231
598.33	0.231
598.53	0.230
598.74	0.230
598.94	0.229
599.14	0.229
599.35	0.229
599.55	0.229
599.75	0.228
599.95	0.227
600.16	0.227
600.36	0.225
600.56	0.225
600.76	0.224
600.97	0.222
601.17	0.222
601.37	0.222
601.58	0.221
601.78	0.221
601.98	0.220
602.18	0.219
602.39	0.219
602.59	0.219
602.79	0.218
602.99	0.218
603.20	0.217
603.40	0.216
603.60	0.216
603.80	0.216
604.01	0.215
604.21	0.214
604.41	0.213
604.61	0.212
604.82	0.212
605.02	0.212
605.22	0.211
605.42	0.212
605.62	0.212
605.83	0.210
606.03	0.209
606.23	0.210
606.43	0.209
606.64	0.209
606.84	0.208
607.04	0.208
607.24	0.208
607.45	0.207
607.65	0.206
607.85	0.207
608.05	0.205
608.25	0.205
608.46	0.205
608.66	0.204
608.86	0.204
609.06	0.202
609.26	0.202
609.47	0.203
609.67	0.201
609.87	0.202
610.07	0.201
610.28	0.200
610.48	0.200
610.68	0.200
610.88	0.198
611.08	0.199
611.29	0.198
611.49	0.197
611.69	0.198
611.89	0.196
612.09	0.196
612.29	0.195
612.50	0.195
612.70	0.195
612.90	0.193
613.10	0.193
613.30	0.192
613.51	0.192
613.71	0.192
613.91	0.196
614.11	0.191
614.31	0.191
614.51	0.191
614.72	0.190
614.92	0.190
615.12	0.190
615.32	0.190
615.52	0.190
615.72	0.190
615.93	0.190
616.13	0.189
616.33	0.189
616.53	0.188
616.73	0.188
616.93	0.187
617.14	0.188
617.34	0.187
617.54	0.187
617.74	0.187
617.94	0.186
618.14	0.186
618.34	0.185
618.55	0.185
618.75	0.185
618.95	0.185
619.15	0.185
619.35	0.184
619.55	0.183
619.75	0.183
619.96	0.182
620.16	0.182
620.36	0.182
620.56	0.182
620.76	0.182
620.96	0.181
621.16	0.181
621.36	0.181
621.57	0.181
621.77	0.181
621.97	0.180
622.17	0.180
622.37	0.180
622.57	0.180
622.77	0.179
622.97	0.177
623.18	0.178
623.38	0.178
623.58	0.177
623.78	0.177
623.98	0.176
624.18	0.176
624.38	0.176
624.58	0.175
624.78	0.176
624.98	0.176
625.19	0.176
625.39	0.176
625.59	0.175
625.79	0.176
625.99	0.175
626.19	0.175
626.39	0.175
626.59	0.175
626.79	0.174
626.99	0.174
627.19	0.173
627.40	0.174
627.60	0.173
627.80	0.173
628.00	0.173
628.20	0.172
628.40	0.172
628.60	0.172
628.80	0.171
629.00	0.171
629.20	0.170
629.40	0.171
629.60	0.170
629.80	0.170
630.00	0.170
630.20	0.170
630.41	0.169
630.61	0.169
630.81	0.168
631.01	0.169
631.21	0.168
631.41	0.168
631.61	0.168
631.81	0.167
632.01	0.167
632.21	0.167
632.41	0.165
632.61	0.165
632.81	0.165
633.01	0.166
633.21	0.166
633.41	0.166
633.61	0.165
633.81	0.165
634.01	0.164
634.21	0.164
634.41	0.164
634.61	0.164
634.81	0.164
635.01	0.163
635.22	0.163
