SpectraSuite Data File
++++++++++++++++++++++++++++++++++++
Date: Mon May 20 12:10:35 CDT 2013
User: Students
Dark Spectrum Present: Yes
Reference Spectrum Present: Yes
Number of Sampled Component Spectra: 1
Spectrometers: USB4H00887
Integration Time (usec): 60000 (USB4H00887)
Spectra Averaged: 5 (USB4H00887)
Boxcar Smoothing: 5 (USB4H00887)
Correct for Electrical Dark: No (USB4H00887)
Strobe/Lamp Enabled: No (USB4H00887)
Correct for Detector Non-linearity: No (USB4H00887)
Correct for Stray Light: No (USB4H00887)
Number of Pixels in Processed Spectrum: 3648
>>>>>Begin Processed Spectral Data<<<<<
345.83	-0.098
346.05	-0.098
346.26	-0.098
346.48	-0.000
346.70	0.301
346.92	0.113
347.14	0.072
347.35	0.064
347.57	0.248
347.79	-0.200
348.01	-0.136
348.23	-0.225
348.44	-0.000
348.66	0.160
348.88	-0.324
349.10	-0.058
349.32	-0.004
349.53	0.037
349.75	0.066
349.97	0.014
350.19	0.054
350.41	0.039
350.62	-0.119
350.84	0.015
351.06	0.039
351.28	0.071
351.50	0.144
351.71	0.207
351.93	0.111
352.15	0.030
352.37	0.118
352.58	0.038
352.80	0.040
353.02	0.068
353.24	0.077
353.46	0.411
353.67	-0.062
353.89	0.031
354.11	0.025
354.33	0.046
354.54	0.084
354.76	0.183
354.98	0.312
355.20	0.236
355.41	0.091
355.63	0.162
355.85	0.050
356.07	0.797
356.28	0.069
356.50	0.118
356.72	0.049
356.94	0.115
357.15	0.097
357.37	-0.000
357.59	0.074
357.81	0.037
358.02	0.092
358.24	0.084
358.46	0.183
358.68	0.207
358.89	0.114
359.11	-0.000
359.33	0.087
359.55	-0.614
359.76	0.179
359.98	0.177
360.20	0.176
360.42	0.142
360.63	0.171
360.85	0.131
361.07	0.559
361.29	0.088
361.50	0.291
361.72	0.109
361.94	0.489
362.15	0.158
362.37	0.086
362.59	0.113
362.81	0.173
363.02	0.275
363.24	0.455
363.46	0.226
363.68	0.298
363.89	0.187
364.11	0.251
364.33	0.303
364.54	0.198
364.76	0.265
364.98	0.230
365.20	0.274
365.41	0.164
365.63	0.204
365.85	0.163
366.06	0.516
366.28	0.544
366.50	0.328
366.71	0.113
366.93	0.116
367.15	0.097
367.37	0.113
367.58	0.143
367.80	0.196
368.02	0.565
368.23	0.158
368.45	0.183
368.67	0.155
368.88	0.152
369.10	-0.000
369.32	0.194
369.53	0.131
369.75	0.180
369.97	0.605
370.19	0.290
370.40	0.102
370.62	0.253
370.84	0.086
371.05	0.554
371.27	0.142
371.49	0.176
371.70	0.187
371.92	0.273
372.14	0.133
372.35	0.140
372.57	0.153
372.79	0.471
373.00	0.114
373.22	0.200
373.44	0.180
373.65	0.127
373.87	0.167
374.09	1.045
374.30	0.153
374.52	0.171
374.74	0.110
374.95	0.463
375.17	0.115
375.39	-0.000
375.60	0.117
375.82	0.188
376.04	0.082
376.25	0.101
376.47	0.054
376.68	0.119
376.90	0.063
377.12	0.125
377.33	0.077
377.55	0.201
377.77	0.105
377.98	0.164
378.20	0.102
378.42	0.131
378.63	0.166
378.85	-0.000
379.07	0.134
379.28	0.561
379.50	0.350
379.71	0.173
379.93	0.122
380.15	0.163
380.36	0.255
380.58	0.192
380.80	0.621
381.01	0.173
381.23	0.136
381.44	0.131
381.66	0.149
381.88	0.175
382.09	-0.084
382.31	0.126
382.53	0.124
382.74	0.663
382.96	0.179
383.17	0.138
383.39	0.196
383.61	0.258
383.82	0.174
384.04	0.218
384.25	0.253
384.47	0.235
384.69	0.226
384.90	0.232
385.12	0.521
385.33	0.327
385.55	0.255
385.77	0.391
385.98	0.185
386.20	0.275
386.41	0.233
386.63	0.275
386.85	0.227
387.06	0.288
387.28	0.443
387.49	0.269
387.71	0.189
387.93	0.167
388.14	0.452
388.36	0.211
388.57	0.182
388.79	0.209
389.01	-0.000
389.22	0.287
389.44	0.247
389.65	0.202
389.87	0.195
390.08	0.233
390.30	0.171
390.52	0.343
390.73	0.339
390.95	0.236
391.16	0.214
391.38	-0.000
391.59	0.224
391.81	0.184
392.03	0.180
392.24	0.221
392.46	0.181
392.67	0.166
392.89	0.227
393.10	0.340
393.32	0.233
393.53	0.288
393.75	0.191
393.97	0.218
394.18	0.323
394.40	0.279
394.61	0.295
394.83	0.261
395.04	0.333
395.26	0.216
395.47	0.326
395.69	0.291
395.91	0.303
396.12	0.362
396.34	0.356
396.55	0.220
396.77	0.340
396.98	-0.000
397.20	0.462
397.41	0.505
397.63	0.354
397.84	0.306
398.06	0.282
398.27	0.278
398.49	0.336
398.71	0.251
398.92	0.308
399.14	0.404
399.35	0.503
399.57	0.446
399.78	0.287
400.00	0.278
400.21	0.364
400.43	0.296
400.64	0.323
400.86	0.741
401.07	0.381
401.29	0.317
401.50	0.331
401.72	0.498
401.93	0.310
402.15	0.405
402.36	0.362
402.58	0.295
402.79	0.320
403.01	0.543
403.22	0.414
403.44	0.274
403.65	0.444
403.87	0.494
404.08	0.363
404.30	0.587
404.51	0.317
404.73	0.399
404.94	0.339
405.16	0.347
405.37	0.269
405.59	0.483
405.80	0.313
406.02	0.391
406.23	0.399
406.45	0.460
406.66	0.507
406.88	0.319
407.09	0.489
407.31	0.392
407.52	0.496
407.74	0.397
407.95	0.499
408.17	0.459
408.38	0.482
408.60	0.310
408.81	0.536
409.03	0.401
409.24	0.415
409.45	0.485
409.67	0.455
409.88	0.399
410.10	0.526
410.31	0.420
410.53	0.402
410.74	0.588
410.96	0.568
411.17	0.599
411.39	0.433
411.60	0.393
411.82	0.447
412.03	0.440
412.24	0.425
412.46	0.628
412.67	0.507
412.89	0.498
413.10	0.494
413.32	0.435
413.53	0.493
413.75	0.505
413.96	0.381
414.17	0.517
414.39	0.510
414.60	0.413
414.82	0.536
415.03	0.420
415.25	0.472
415.46	0.318
415.68	0.449
415.89	0.844
416.10	0.725
416.32	0.387
416.53	0.458
416.75	0.440
416.96	0.559
417.18	0.486
417.39	0.455
417.60	0.447
417.82	0.671
418.03	0.591
418.25	0.485
418.46	0.500
418.67	0.459
418.89	0.495
419.10	0.518
419.32	0.695
419.53	0.609
419.75	0.514
419.96	0.453
420.17	0.565
420.39	0.528
420.60	0.552
420.82	0.675
421.03	0.530
421.24	0.450
421.46	0.492
421.67	0.540
421.89	0.468
422.10	0.502
422.31	0.501
422.53	0.735
422.74	0.540
422.96	0.432
423.17	0.476
423.38	0.591
423.60	0.478
423.81	0.600
424.03	0.518
424.24	0.586
424.45	0.575
424.67	0.559
424.88	0.498
425.09	0.531
425.31	0.477
425.52	0.517
425.74	0.581
425.95	0.641
426.16	0.497
426.38	0.578
426.59	0.523
426.80	0.611
427.02	0.648
427.23	0.498
427.45	0.660
427.66	0.658
427.87	0.498
428.09	0.533
428.30	0.595
428.51	0.580
428.73	0.641
428.94	0.568
429.15	0.552
429.37	0.528
429.58	0.557
429.79	0.514
430.01	0.612
430.22	0.600
430.44	0.614
430.65	0.550
430.86	0.601
431.08	0.578
431.29	0.531
431.50	0.632
431.72	0.865
431.93	0.704
432.14	0.516
432.36	0.568
432.57	0.593
432.78	0.616
433.00	0.569
433.21	0.560
433.42	0.707
433.64	0.612
433.85	0.704
434.06	0.563
434.28	0.586
434.49	0.610
434.70	0.623
434.92	0.623
435.13	0.671
435.34	0.679
435.56	0.642
435.77	0.637
435.98	0.831
436.20	0.689
436.41	0.587
436.62	0.584
436.83	0.671
437.05	0.754
437.26	0.663
437.47	0.588
437.69	0.641
437.90	0.589
438.11	0.583
438.33	0.642
438.54	0.657
438.75	0.843
438.97	0.821
439.18	0.602
439.39	0.644
439.60	0.698
439.82	0.649
440.03	0.603
440.24	0.896
440.46	0.650
440.67	0.623
440.88	0.662
441.10	0.620
441.31	0.622
441.52	0.685
441.73	0.770
441.95	0.681
442.16	0.630
442.37	1.028
442.58	0.618
442.80	0.605
443.01	0.801
443.22	0.731
443.44	0.615
443.65	0.722
443.86	0.711
444.07	0.756
444.29	0.654
444.50	0.834
444.71	0.627
444.92	0.583
445.14	0.746
445.35	0.781
445.56	0.619
445.78	0.737
445.99	0.743
446.20	0.639
446.41	0.724
446.63	0.717
446.84	0.673
447.05	0.673
447.26	0.823
447.48	0.694
447.69	0.658
447.90	0.753
448.11	0.666
448.33	0.688
448.54	0.708
448.75	0.739
448.96	0.754
449.18	0.800
449.39	0.714
449.60	0.687
449.81	0.835
450.03	0.722
450.24	0.780
450.45	0.726
450.66	0.716
450.87	0.755
451.09	0.706
451.30	0.682
451.51	0.767
451.72	0.779
451.94	0.808
452.15	0.887
452.36	0.725
452.57	0.748
452.78	0.757
453.00	0.790
453.21	0.735
453.42	0.706
453.63	0.811
453.85	0.764
454.06	0.751
454.27	0.875
454.48	0.775
454.69	0.703
454.91	0.767
455.12	0.667
455.33	0.752
455.54	0.770
455.75	0.737
455.97	0.763
456.18	0.751
456.39	0.762
456.60	0.789
456.81	0.725
457.03	0.733
457.24	0.736
457.45	0.826
457.66	0.768
457.87	0.724
458.09	0.745
458.30	0.659
458.51	0.785
458.72	0.817
458.93	0.830
459.15	0.727
459.36	0.800
459.57	0.828
459.78	0.881
459.99	0.783
460.20	0.750
460.42	0.849
460.63	0.803
460.84	0.786
461.05	0.795
461.26	0.857
461.47	0.767
461.69	0.827
461.90	0.860
462.11	0.811
462.32	0.875
462.53	0.800
462.74	0.896
462.96	0.773
463.17	0.763
463.38	0.815
463.59	0.939
463.80	0.777
464.01	0.793
464.23	0.894
464.44	0.851
464.65	0.855
464.86	0.878
465.07	0.883
465.28	0.845
465.49	0.866
465.71	0.812
465.92	0.853
466.13	0.902
466.34	0.830
466.55	0.880
466.76	0.841
466.97	0.868
467.19	0.860
467.40	0.900
467.61	0.898
467.82	0.812
468.03	0.795
468.24	0.865
468.45	0.900
468.66	0.885
468.88	0.898
469.09	0.893
469.30	0.936
469.51	0.860
469.72	0.900
469.93	0.870
470.14	0.850
470.35	0.943
470.57	0.888
470.78	0.827
470.99	0.965
471.20	0.897
471.41	0.855
471.62	0.911
471.83	0.879
472.04	0.912
472.25	0.958
472.47	0.874
472.68	0.881
472.89	0.890
473.10	0.933
473.31	0.882
473.52	0.943
473.73	0.975
473.94	0.886
474.15	0.913
474.36	0.915
474.57	0.944
474.79	0.916
475.00	0.917
475.21	0.903
475.42	0.996
475.63	0.890
475.84	0.923
476.05	0.926
476.26	0.898
476.47	0.934
476.68	0.981
476.89	0.905
477.10	0.958
477.32	0.944
477.53	1.002
477.74	0.921
477.95	0.964
478.16	0.912
478.37	0.959
478.58	0.961
478.79	0.975
479.00	0.976
479.21	0.930
479.42	0.968
479.63	0.974
479.84	0.937
480.05	0.941
480.26	0.968
480.47	0.984
480.69	0.988
480.90	0.950
481.11	0.946
481.32	1.011
481.53	0.950
481.74	1.009
481.95	0.969
482.16	0.985
482.37	0.992
482.58	0.955
482.79	0.974
483.00	1.003
483.21	0.950
483.42	0.925
483.63	1.005
483.84	1.033
484.05	1.019
484.26	0.988
484.47	0.986
484.68	0.946
484.89	0.955
485.10	1.010
485.31	0.986
485.52	0.992
485.73	0.988
485.94	1.030
486.15	0.976
486.37	0.995
486.58	0.957
486.79	0.973
487.00	1.024
487.21	1.013
487.42	1.009
487.63	1.015
487.84	1.034
488.05	1.028
488.26	0.986
488.47	0.990
488.68	1.020
488.89	0.994
489.10	0.985
489.31	0.998
489.52	1.034
489.73	0.995
489.94	1.034
490.15	0.989
490.36	1.035
490.57	0.985
490.78	0.970
490.99	1.009
491.20	1.096
491.41	1.049
491.62	0.984
491.83	1.015
492.04	1.009
492.25	1.016
492.45	1.018
492.66	1.046
492.87	1.030
493.08	1.018
493.29	0.997
493.50	0.987
493.71	0.995
493.92	0.994
494.13	1.011
494.34	1.036
494.55	1.042
494.76	1.073
494.97	1.064
495.18	1.030
495.39	1.046
495.60	0.996
495.81	0.996
496.02	1.017
496.23	1.012
496.44	1.044
496.65	1.032
496.86	1.038
497.07	1.064
497.28	1.057
497.49	1.000
497.70	1.003
497.91	1.026
498.12	1.008
498.32	1.050
498.53	1.032
498.74	1.024
498.95	1.052
499.16	1.007
499.37	1.013
499.58	1.024
499.79	1.055
500.00	1.048
500.21	1.076
500.42	1.015
500.63	1.019
500.84	1.041
501.05	1.018
501.26	1.048
501.46	1.086
501.67	1.043
501.88	1.046
502.09	1.024
502.30	1.033
502.51	1.086
502.72	1.041
502.93	1.055
503.14	1.081
503.35	1.047
503.56	1.042
503.77	1.075
503.97	1.049
504.18	1.047
504.39	1.079
504.60	1.048
504.81	1.076
505.02	1.065
505.23	1.067
505.44	1.045
505.65	1.057
505.86	1.033
506.07	1.102
506.27	1.060
506.48	1.068
506.69	1.050
506.90	1.071
507.11	1.069
507.32	1.043
507.53	1.053
507.74	1.043
507.95	1.057
508.15	1.063
508.36	1.068
508.57	1.079
508.78	1.060
508.99	1.061
509.20	1.036
509.41	1.060
509.62	1.048
509.82	1.044
510.03	1.056
510.24	1.054
510.45	1.076
510.66	1.067
510.87	1.064
511.08	1.021
511.29	1.062
511.49	1.038
511.70	1.088
511.91	1.020
512.12	1.019
512.33	1.052
512.54	1.070
512.75	1.052
512.95	1.079
513.16	1.068
513.37	1.047
513.58	1.089
513.79	1.048
514.00	1.056
514.20	1.075
514.41	1.062
514.62	1.026
514.83	1.069
515.04	1.061
515.25	1.041
515.46	1.056
515.66	1.055
515.87	1.069
516.08	1.037
516.29	1.062
516.50	1.042
516.71	1.036
516.91	1.049
517.12	1.066
517.33	1.051
517.54	1.035
517.75	1.038
517.95	1.051
518.16	1.062
518.37	1.029
518.58	1.035
518.79	1.006
519.00	1.037
519.20	1.048
519.41	1.019
519.62	1.042
519.83	1.054
520.04	1.013
520.24	1.009
520.45	1.018
520.66	1.043
520.87	1.003
521.08	1.002
521.28	1.007
521.49	1.023
521.70	0.992
521.91	1.002
522.12	0.981
522.32	1.006
522.53	0.989
522.74	0.978
522.95	0.987
523.16	0.989
523.36	0.999
523.57	0.980
523.78	0.975
523.99	0.981
524.20	0.974
524.40	0.988
524.61	0.994
524.82	0.969
525.03	0.974
525.23	0.975
525.44	0.959
525.65	0.957
525.86	0.978
526.06	0.948
526.27	0.949
526.48	0.960
526.69	0.942
526.90	0.946
527.10	0.981
527.31	0.936
527.52	0.929
527.73	0.920
527.93	0.931
528.14	0.938
528.35	0.928
528.56	0.929
528.76	0.923
528.97	0.912
529.18	0.904
529.39	0.905
529.59	0.906
529.80	0.939
530.01	0.911
530.22	0.910
530.42	0.878
530.63	0.896
530.84	0.872
531.05	0.886
531.25	0.888
531.46	0.878
531.67	0.856
531.88	0.877
532.08	0.869
532.29	0.865
532.50	0.857
532.70	0.851
532.91	0.841
533.12	0.844
533.33	0.869
533.53	0.839
533.74	0.838
533.95	0.844
534.15	0.830
534.36	0.831
534.57	0.814
534.78	0.816
534.98	0.825
535.19	0.794
535.40	0.795
535.60	0.813
535.81	0.793
536.02	0.794
536.23	0.787
536.43	0.788
536.64	0.774
536.85	0.782
537.05	0.791
537.26	0.768
537.47	0.771
537.67	0.761
537.88	0.756
538.09	0.763
538.30	0.753
538.50	0.743
538.71	0.755
538.92	0.743
539.12	0.739
539.33	0.733
539.54	0.734
539.74	0.738
539.95	0.727
540.16	0.725
540.36	0.716
540.57	0.715
540.78	0.707
540.98	0.706
541.19	0.703
541.40	0.690
541.60	0.700
541.81	0.695
542.02	0.695
542.22	0.686
542.43	0.681
542.64	0.676
542.84	0.676
543.05	0.667
543.26	0.667
543.46	0.670
543.67	0.668
543.88	0.663
544.08	0.652
544.29	0.647
544.50	0.646
544.70	0.646
544.91	0.637
545.12	0.638
545.32	0.633
545.53	0.637
545.74	0.625
545.94	0.622
546.15	0.620
546.35	0.617
546.56	0.613
546.77	0.610
546.97	0.607
547.18	0.599
547.39	0.599
547.59	0.597
547.80	0.592
548.01	0.596
548.21	0.591
548.42	0.583
548.62	0.583
548.83	0.579
549.04	0.576
549.24	0.568
549.45	0.567
549.65	0.563
549.86	0.559
550.07	0.559
550.27	0.556
550.48	0.564
550.69	0.550
550.89	0.549
551.10	0.545
551.30	0.543
551.51	0.543
551.72	0.534
551.92	0.535
552.13	0.534
552.33	0.535
552.54	0.529
552.75	0.522
552.95	0.524
553.16	0.518
553.36	0.517
553.57	0.515
553.78	0.513
553.98	0.512
554.19	0.503
554.39	0.501
554.60	0.502
554.80	0.501
555.01	0.494
555.22	0.496
555.42	0.492
555.63	0.486
555.83	0.489
556.04	0.483
556.25	0.486
556.45	0.478
556.66	0.476
556.86	0.480
557.07	0.477
557.27	0.477
557.48	0.471
557.68	0.469
557.89	0.470
558.10	0.466
558.30	0.462
558.51	0.460
558.71	0.458
558.92	0.453
559.12	0.454
559.33	0.457
559.54	0.451
559.74	0.447
559.95	0.445
560.15	0.444
560.36	0.442
560.56	0.437
560.77	0.436
560.97	0.436
561.18	0.430
561.38	0.429
561.59	0.431
561.79	0.427
562.00	0.425
562.21	0.422
562.41	0.420
562.62	0.419
562.82	0.417
563.03	0.414
563.23	0.414
563.44	0.414
563.64	0.410
563.85	0.412
564.05	0.405
564.26	0.405
564.46	0.404
564.67	0.404
564.87	0.400
565.08	0.397
565.28	0.396
565.49	0.398
565.69	0.395
565.90	0.392
566.10	0.394
566.31	0.388
566.51	0.389
566.72	0.390
566.92	0.384
567.13	0.383
567.33	0.382
567.54	0.381
567.74	0.379
567.95	0.375
568.15	0.376
568.36	0.375
568.56	0.374
568.77	0.369
568.97	0.367
569.18	0.367
569.38	0.365
569.59	0.366
569.79	0.363
570.00	0.361
570.20	0.359
570.41	0.357
570.61	0.356
570.82	0.357
571.02	0.353
571.23	0.355
571.43	0.351
571.64	0.349
571.84	0.348
572.05	0.347
572.25	0.346
572.45	0.344
572.66	0.341
572.86	0.341
573.07	0.339
573.27	0.339
573.48	0.338
573.68	0.334
573.89	0.333
574.09	0.334
574.30	0.332
574.50	0.331
574.70	0.331
574.91	0.329
575.11	0.328
575.32	0.328
575.52	0.324
575.73	0.324
575.93	0.324
576.14	0.323
576.34	0.321
576.54	0.320
576.75	0.318
576.95	0.317
577.16	0.315
577.36	0.314
577.57	0.313
577.77	0.312
577.97	0.309
578.18	0.310
578.38	0.306
578.59	0.305
578.79	0.303
579.00	0.304
579.20	0.302
579.40	0.301
579.61	0.301
579.81	0.300
580.02	0.297
580.22	0.297
580.42	0.296
580.63	0.296
580.83	0.295
581.04	0.294
581.24	0.293
581.45	0.292
581.65	0.292
581.85	0.291
582.06	0.289
582.26	0.289
582.47	0.287
582.67	0.287
582.87	0.286
583.08	0.283
583.28	0.283
583.48	0.281
583.69	0.278
583.89	0.278
584.10	0.279
584.30	0.277
584.50	0.275
584.71	0.274
584.91	0.273
585.12	0.272
585.32	0.273
585.52	0.271
585.73	0.270
585.93	0.269
586.13	0.268
586.34	0.268
586.54	0.267
586.75	0.265
586.95	0.265
587.15	0.265
587.36	0.264
587.56	0.262
587.76	0.261
587.97	0.260
588.17	0.260
588.37	0.259
588.58	0.259
588.78	0.256
588.98	0.257
589.19	0.257
589.39	0.254
589.60	0.256
589.80	0.253
590.00	0.253
590.21	0.253
590.41	0.251
590.61	0.251
590.82	0.250
591.02	0.250
591.22	0.247
591.43	0.248
591.63	0.246
591.83	0.246
592.04	0.245
592.24	0.245
592.44	0.243
592.65	0.242
592.85	0.242
593.05	0.242
593.26	0.241
593.46	0.240
593.66	0.240
593.86	0.239
594.07	0.237
594.27	0.237
594.47	0.236
594.68	0.235
594.88	0.236
595.08	0.235
595.29	0.235
595.49	0.233
595.69	0.232
595.90	0.231
596.10	0.232
596.30	0.231
596.50	0.230
596.71	0.230
596.91	0.228
597.11	0.227
597.32	0.227
597.52	0.226
597.72	0.226
597.93	0.226
598.13	0.224
598.33	0.224
598.53	0.224
598.74	0.223
598.94	0.222
599.14	0.222
599.35	0.222
599.55	0.221
599.75	0.220
599.95	0.219
600.16	0.219
600.36	0.217
600.56	0.218
600.76	0.216
600.97	0.215
601.17	0.215
601.37	0.215
601.58	0.214
601.78	0.214
601.98	0.212
602.18	0.212
602.39	0.211
602.59	0.211
602.79	0.210
602.99	0.210
603.20	0.208
603.40	0.209
603.60	0.208
603.80	0.208
604.01	0.207
604.21	0.207
604.41	0.206
604.61	0.205
604.82	0.205
605.02	0.205
605.22	0.204
605.42	0.204
605.62	0.204
605.83	0.203
606.03	0.202
606.23	0.202
606.43	0.202
606.64	0.202
606.84	0.201
607.04	0.201
607.24	0.201
607.45	0.201
607.65	0.200
607.85	0.200
608.05	0.199
608.25	0.199
608.46	0.198
608.66	0.198
608.86	0.197
609.06	0.196
609.26	0.195
609.47	0.195
609.67	0.194
609.87	0.194
610.07	0.193
610.28	0.192
610.48	0.192
610.68	0.192
610.88	0.191
611.08	0.191
611.29	0.190
611.49	0.190
611.69	0.191
611.89	0.189
612.09	0.189
612.29	0.188
612.50	0.188
612.70	0.188
612.90	0.187
613.10	0.186
613.30	0.186
613.51	0.186
613.71	0.186
613.91	0.190
614.11	0.185
614.31	0.185
614.51	0.185
614.72	0.184
614.92	0.183
615.12	0.183
615.32	0.183
615.52	0.183
615.72	0.183
615.93	0.182
616.13	0.182
616.33	0.182
616.53	0.181
616.73	0.182
616.93	0.180
617.14	0.181
617.34	0.181
617.54	0.181
617.74	0.181
617.94	0.179
618.14	0.179
618.34	0.178
618.55	0.178
618.75	0.178
618.95	0.178
619.15	0.178
619.35	0.177
619.55	0.176
619.75	0.176
619.96	0.176
620.16	0.176
620.36	0.176
620.56	0.175
620.76	0.175
620.96	0.174
621.16	0.174
621.36	0.174
621.57	0.174
621.77	0.175
621.97	0.173
622.17	0.173
622.37	0.173
622.57	0.173
622.77	0.173
622.97	0.172
623.18	0.172
623.38	0.173
623.58	0.172
623.78	0.171
623.98	0.171
624.18	0.170
624.38	0.170
624.58	0.169
624.78	0.170
624.98	0.169
625.19	0.169
625.39	0.169
625.59	0.168
625.79	0.168
625.99	0.168
626.19	0.167
626.39	0.167
626.59	0.167
626.79	0.167
626.99	0.167
627.19	0.166
627.40	0.167
627.60	0.167
627.80	0.167
628.00	0.167
628.20	0.166
628.40	0.166
628.60	0.166
628.80	0.165
629.00	0.166
629.20	0.165
629.40	0.165
629.60	0.163
629.80	0.163
630.00	0.163
630.20	0.163
630.41	0.162
630.61	0.162
630.81	0.162
631.01	0.162
631.21	0.161
631.41	0.161
631.61	0.162
631.81	0.161
632.01	0.160
632.21	0.161
632.41	0.160
632.61	0.159
632.81	0.160
633.01	0.160
633.21	0.159
633.41	0.160
633.61	0.159
633.81	0.158
634.01	0.158
634.21	0.158
634.41	0.158
634.61	0.158
634.81	0.157
635.01	0.157
635.22	0.157
