SpectraSuite Data File
++++++++++++++++++++++++++++++++++++
Date: Mon May 20 12:13:52 CDT 2013
User: Students
Dark Spectrum Present: Yes
Reference Spectrum Present: Yes
Number of Sampled Component Spectra: 1
Spectrometers: USB4H00887
Integration Time (usec): 60000 (USB4H00887)
Spectra Averaged: 5 (USB4H00887)
Boxcar Smoothing: 5 (USB4H00887)
Correct for Electrical Dark: No (USB4H00887)
Strobe/Lamp Enabled: No (USB4H00887)
Correct for Detector Non-linearity: No (USB4H00887)
Correct for Stray Light: No (USB4H00887)
Number of Pixels in Processed Spectrum: 3648
>>>>>Begin Processed Spectral Data<<<<<
345.83	0.222
346.05	0.222
346.26	0.222
346.48	-0.000
346.70	0.357
346.92	0.026
347.14	0.039
347.35	0.043
347.57	0.304
347.79	-0.189
348.01	-0.198
348.23	-0.318
348.44	-0.000
348.66	0.272
348.88	-0.393
349.10	-0.201
349.32	0.078
349.53	-0.029
349.75	-0.068
349.97	-0.044
350.19	-0.021
350.41	0.047
350.62	-0.228
350.84	0.015
351.06	0.012
351.28	-0.021
351.50	-0.137
351.71	-0.113
351.93	-0.092
352.15	-0.017
352.37	-0.079
352.58	-0.027
352.80	-0.008
353.02	-0.029
353.24	-0.021
353.46	-0.052
353.67	0.017
353.89	0.005
354.11	0.027
354.33	0.031
354.54	0.084
354.76	0.143
354.98	0.325
355.20	0.253
355.41	0.129
355.63	0.258
355.85	0.112
356.07	-0.000
356.28	0.114
356.50	0.163
356.72	0.082
356.94	0.154
357.15	0.303
357.37	-0.000
357.59	0.127
357.81	0.069
358.02	0.103
358.24	0.078
358.46	0.151
358.68	0.127
358.89	0.078
359.11	-0.000
359.33	0.042
359.55	-0.248
359.76	0.045
359.98	0.048
360.20	0.064
360.42	0.056
360.63	0.051
360.85	0.009
361.07	0.057
361.29	0.026
361.50	0.148
361.72	0.066
361.94	0.237
362.15	0.086
362.37	0.055
362.59	0.063
362.81	0.115
363.02	0.190
363.24	0.289
363.46	0.187
363.68	0.224
363.89	0.147
364.11	0.198
364.33	0.244
364.54	0.159
364.76	0.167
364.98	0.176
365.20	0.214
365.41	0.145
365.63	0.181
365.85	0.111
366.06	0.305
366.28	0.318
366.50	0.226
366.71	0.096
366.93	0.152
367.15	0.182
367.37	0.156
367.58	0.181
367.80	0.191
368.02	0.609
368.23	0.173
368.45	0.185
368.67	0.169
368.88	0.148
369.10	-0.000
369.32	0.139
369.53	0.067
369.75	0.111
369.97	0.204
370.19	0.148
370.40	0.069
370.62	0.213
370.84	0.089
371.05	0.472
371.27	0.142
371.49	0.165
371.70	0.182
371.92	0.277
372.14	0.120
372.35	0.149
372.57	0.148
372.79	0.407
373.00	0.088
373.22	0.116
373.44	0.110
373.65	0.080
373.87	0.096
374.09	0.357
374.30	0.086
374.52	0.097
374.74	0.061
374.95	0.300
375.17	0.104
375.39	-0.000
375.60	0.146
375.82	0.242
376.04	0.118
376.25	0.135
376.47	0.083
376.68	0.213
376.90	0.126
377.12	0.236
377.33	0.123
377.55	0.238
377.77	0.119
377.98	0.188
378.20	0.122
378.42	0.136
378.63	0.177
378.85	-0.000
379.07	0.134
379.28	0.417
379.50	0.293
379.71	0.157
379.93	0.116
380.15	0.153
380.36	0.237
380.58	0.165
380.80	0.419
381.01	0.151
381.23	0.126
381.44	0.141
381.66	0.189
381.88	0.235
382.09	-0.095
382.31	0.149
382.53	0.154
382.74	0.958
382.96	0.191
383.17	0.174
383.39	0.198
383.61	0.242
383.82	0.180
384.04	0.190
384.25	0.248
384.47	0.226
384.69	0.219
384.90	0.201
385.12	0.411
385.33	0.270
385.55	0.201
385.77	0.353
385.98	0.197
386.20	0.246
386.41	0.212
386.63	0.224
386.85	0.197
387.06	0.243
387.28	0.422
387.49	0.275
387.71	0.212
387.93	0.186
388.14	0.502
388.36	0.193
388.57	0.183
388.79	0.199
389.01	-0.000
389.22	0.289
389.44	0.260
389.65	0.195
389.87	0.195
390.08	0.235
390.30	0.179
390.52	0.383
390.73	0.394
390.95	0.268
391.16	0.276
391.38	-0.000
391.59	0.287
391.81	0.231
392.03	0.223
392.24	0.256
392.46	0.209
392.67	0.190
392.89	0.247
393.10	0.374
393.32	0.259
393.53	0.304
393.75	0.178
393.97	0.209
394.18	0.284
394.40	0.238
394.61	0.266
394.83	0.232
395.04	0.285
395.26	0.199
395.47	0.314
395.69	0.256
395.91	0.273
396.12	0.359
396.34	0.356
396.55	0.226
396.77	0.345
396.98	-0.000
397.20	0.405
397.41	0.446
397.63	0.312
397.84	0.278
398.06	0.270
398.27	0.269
398.49	0.299
398.71	0.221
398.92	0.278
399.14	0.376
399.35	0.463
399.57	0.426
399.78	0.282
400.00	0.272
400.21	0.322
400.43	0.261
400.64	0.271
400.86	0.589
401.07	0.333
401.29	0.284
401.50	0.283
401.72	0.405
401.93	0.274
402.15	0.333
402.36	0.297
402.58	0.249
402.79	0.273
403.01	0.452
403.22	0.343
403.44	0.236
403.65	0.353
403.87	0.398
404.08	0.308
404.30	0.475
404.51	0.279
404.73	0.334
404.94	0.289
405.16	0.312
405.37	0.243
405.59	0.436
405.80	0.279
406.02	0.348
406.23	0.356
406.45	0.409
406.66	0.442
406.88	0.280
407.09	0.427
407.31	0.344
407.52	0.399
407.74	0.323
407.95	0.383
408.17	0.357
408.38	0.374
408.60	0.243
408.81	0.390
409.03	0.296
409.24	0.307
409.45	0.355
409.67	0.343
409.88	0.312
410.10	0.385
410.31	0.324
410.53	0.310
410.74	0.423
410.96	0.427
411.17	0.441
411.39	0.339
411.60	0.310
411.82	0.362
412.03	0.349
412.24	0.337
412.46	0.483
412.67	0.409
412.89	0.407
413.10	0.412
413.32	0.380
413.53	0.436
413.75	0.460
413.96	0.362
414.17	0.472
414.39	0.478
414.60	0.395
414.82	0.525
415.03	0.398
415.25	0.440
415.46	0.310
415.68	0.426
415.89	0.768
416.10	0.624
416.32	0.346
416.53	0.400
416.75	0.381
416.96	0.452
417.18	0.395
417.39	0.381
417.60	0.383
417.82	0.545
418.03	0.485
418.25	0.409
418.46	0.427
418.67	0.390
418.89	0.427
419.10	0.445
419.32	0.587
419.53	0.534
419.75	0.460
419.96	0.403
420.17	0.485
420.39	0.450
420.60	0.464
420.82	0.562
421.03	0.468
421.24	0.391
421.46	0.433
421.67	0.469
421.89	0.408
422.10	0.442
422.31	0.443
422.53	0.616
422.74	0.468
422.96	0.372
423.17	0.403
423.38	0.487
423.60	0.423
423.81	0.518
424.03	0.459
424.24	0.504
424.45	0.498
424.67	0.492
424.88	0.446
425.09	0.475
425.31	0.444
425.52	0.467
425.74	0.506
425.95	0.526
426.16	0.419
426.38	0.479
426.59	0.446
426.80	0.502
427.02	0.532
427.23	0.420
427.45	0.549
427.66	0.542
427.87	0.438
428.09	0.467
428.30	0.532
428.51	0.513
428.73	0.554
428.94	0.495
429.15	0.488
429.37	0.461
429.58	0.490
429.79	0.446
430.01	0.522
430.22	0.523
430.44	0.538
430.65	0.485
430.86	0.526
431.08	0.511
431.29	0.471
431.50	0.544
431.72	0.690
431.93	0.568
432.14	0.442
432.36	0.482
432.57	0.490
432.78	0.503
433.00	0.468
433.21	0.460
433.42	0.562
433.64	0.497
433.85	0.547
434.06	0.462
434.28	0.493
434.49	0.507
434.70	0.518
434.92	0.526
435.13	0.563
435.34	0.567
435.56	0.541
435.77	0.544
435.98	0.675
436.20	0.582
436.41	0.506
436.62	0.494
436.83	0.554
437.05	0.622
437.26	0.556
437.47	0.498
437.69	0.534
437.90	0.490
438.11	0.480
438.33	0.526
438.54	0.538
438.75	0.668
438.97	0.660
439.18	0.512
439.39	0.534
439.60	0.567
439.82	0.541
440.03	0.510
440.24	0.710
440.46	0.551
440.67	0.526
440.88	0.559
441.10	0.527
441.31	0.521
441.52	0.559
441.73	0.619
441.95	0.557
442.16	0.519
442.37	0.753
442.58	0.513
442.80	0.506
443.01	0.642
443.22	0.604
443.44	0.524
443.65	0.615
443.86	0.615
444.07	0.640
444.29	0.564
444.50	0.692
444.71	0.541
444.92	0.511
445.14	0.627
445.35	0.654
445.56	0.524
445.78	0.601
445.99	0.597
446.20	0.525
446.41	0.589
446.63	0.589
446.84	0.560
447.05	0.563
447.26	0.652
447.48	0.567
447.69	0.544
447.90	0.612
448.11	0.554
448.33	0.573
448.54	0.590
448.75	0.614
448.96	0.615
449.18	0.649
449.39	0.592
449.60	0.581
449.81	0.685
450.03	0.611
450.24	0.659
450.45	0.624
450.66	0.615
450.87	0.645
451.09	0.600
451.30	0.587
451.51	0.639
451.72	0.640
451.94	0.652
452.15	0.706
452.36	0.601
452.57	0.612
452.78	0.608
453.00	0.625
453.21	0.588
453.42	0.571
453.63	0.640
453.85	0.619
454.06	0.622
454.27	0.712
454.48	0.642
454.69	0.588
454.91	0.640
455.12	0.576
455.33	0.639
455.54	0.656
455.75	0.634
455.97	0.658
456.18	0.651
456.39	0.655
456.60	0.676
456.81	0.636
457.03	0.644
457.24	0.645
457.45	0.706
457.66	0.665
457.87	0.631
458.09	0.651
458.30	0.586
458.51	0.681
458.72	0.698
458.93	0.702
459.15	0.628
459.36	0.674
459.57	0.691
459.78	0.727
459.99	0.660
460.20	0.631
460.42	0.685
460.63	0.652
460.84	0.639
461.05	0.650
461.26	0.693
461.47	0.636
461.69	0.676
461.90	0.702
462.11	0.674
462.32	0.720
462.53	0.676
462.74	0.750
462.96	0.666
463.17	0.659
463.38	0.694
463.59	0.772
463.80	0.654
464.01	0.671
464.23	0.733
464.44	0.704
464.65	0.706
464.86	0.721
465.07	0.725
465.28	0.695
465.49	0.707
465.71	0.673
465.92	0.704
466.13	0.741
466.34	0.698
466.55	0.743
466.76	0.713
466.97	0.730
467.19	0.721
467.40	0.744
467.61	0.745
467.82	0.691
468.03	0.677
468.24	0.730
468.45	0.751
468.66	0.738
468.88	0.738
469.09	0.738
469.30	0.774
469.51	0.722
469.72	0.754
469.93	0.735
470.14	0.719
470.35	0.787
470.57	0.748
470.78	0.707
470.99	0.799
471.20	0.756
471.41	0.729
471.62	0.763
471.83	0.745
472.04	0.766
472.25	0.794
472.47	0.733
472.68	0.737
472.89	0.743
473.10	0.773
473.31	0.738
473.52	0.777
473.73	0.789
473.94	0.737
474.15	0.754
474.36	0.753
474.57	0.771
474.79	0.758
475.00	0.758
475.21	0.749
475.42	0.815
475.63	0.748
475.84	0.771
476.05	0.777
476.26	0.753
476.47	0.777
476.68	0.811
476.89	0.760
477.10	0.793
477.32	0.784
477.53	0.820
477.74	0.765
477.95	0.793
478.16	0.759
478.37	0.789
478.58	0.791
478.79	0.802
479.00	0.804
479.21	0.776
479.42	0.805
479.63	0.809
479.84	0.785
480.05	0.784
480.26	0.808
480.47	0.819
480.69	0.821
480.90	0.800
481.11	0.799
481.32	0.840
481.53	0.799
481.74	0.835
481.95	0.811
482.16	0.821
482.37	0.828
482.58	0.803
482.79	0.816
483.00	0.837
483.21	0.800
483.42	0.780
483.63	0.837
483.84	0.856
484.05	0.852
484.26	0.835
484.47	0.832
484.68	0.803
484.89	0.805
485.10	0.840
485.31	0.824
485.52	0.828
485.73	0.829
485.94	0.856
486.15	0.820
486.37	0.830
486.58	0.804
486.79	0.812
487.00	0.846
487.21	0.842
487.42	0.838
487.63	0.840
487.84	0.854
488.05	0.850
488.26	0.822
488.47	0.826
488.68	0.844
488.89	0.828
489.10	0.825
489.31	0.832
489.52	0.856
489.73	0.833
489.94	0.858
490.15	0.827
490.36	0.856
490.57	0.822
490.78	0.811
490.99	0.838
491.20	0.890
491.41	0.861
491.62	0.823
491.83	0.841
492.04	0.838
492.25	0.844
492.45	0.845
492.66	0.861
492.87	0.855
493.08	0.847
493.29	0.836
493.50	0.830
493.71	0.835
493.92	0.832
494.13	0.844
494.34	0.859
494.55	0.864
494.76	0.883
494.97	0.876
495.18	0.852
495.39	0.862
495.60	0.829
495.81	0.831
496.02	0.844
496.23	0.838
496.44	0.859
496.65	0.854
496.86	0.858
497.07	0.877
497.28	0.874
497.49	0.842
497.70	0.841
497.91	0.854
498.12	0.842
498.32	0.871
498.53	0.863
498.74	0.857
498.95	0.872
499.16	0.840
499.37	0.842
499.58	0.847
499.79	0.865
500.00	0.863
500.21	0.883
500.42	0.847
500.63	0.848
500.84	0.860
501.05	0.845
501.26	0.862
501.46	0.888
501.67	0.865
501.88	0.867
502.09	0.852
502.30	0.858
502.51	0.890
502.72	0.860
502.93	0.870
503.14	0.884
503.35	0.864
503.56	0.862
503.77	0.884
503.97	0.867
504.18	0.866
504.39	0.890
504.60	0.870
504.81	0.888
505.02	0.881
505.23	0.882
505.44	0.870
505.65	0.875
505.86	0.862
506.07	0.905
506.27	0.879
506.48	0.881
506.69	0.870
506.90	0.881
507.11	0.880
507.32	0.864
507.53	0.870
507.74	0.865
507.95	0.874
508.15	0.879
508.36	0.881
508.57	0.889
508.78	0.881
508.99	0.882
509.20	0.867
509.41	0.884
509.62	0.877
509.82	0.876
510.03	0.886
510.24	0.885
510.45	0.900
510.66	0.895
510.87	0.892
511.08	0.864
511.29	0.891
511.49	0.876
511.70	0.905
511.91	0.862
512.12	0.860
512.33	0.878
512.54	0.890
512.75	0.879
512.95	0.894
513.16	0.888
513.37	0.873
513.58	0.898
513.79	0.872
514.00	0.875
514.20	0.886
514.41	0.878
514.62	0.859
514.83	0.884
515.04	0.878
515.25	0.865
515.46	0.873
515.66	0.874
515.87	0.883
516.08	0.862
516.29	0.879
516.50	0.865
516.71	0.861
516.91	0.866
517.12	0.879
517.33	0.869
517.54	0.860
517.75	0.861
517.95	0.870
518.16	0.876
518.37	0.855
518.58	0.859
518.79	0.841
519.00	0.862
519.20	0.867
519.41	0.848
519.62	0.859
519.83	0.866
520.04	0.843
520.24	0.840
520.45	0.847
520.66	0.862
520.87	0.836
521.08	0.836
521.28	0.839
521.49	0.850
521.70	0.830
521.91	0.840
522.12	0.827
522.32	0.842
522.53	0.829
522.74	0.821
522.95	0.828
523.16	0.830
523.36	0.835
523.57	0.822
523.78	0.820
523.99	0.822
524.20	0.817
524.40	0.825
524.61	0.829
524.82	0.812
525.03	0.816
525.23	0.817
525.44	0.805
525.65	0.802
525.86	0.819
526.06	0.797
526.27	0.798
526.48	0.804
526.69	0.791
526.90	0.794
527.10	0.818
527.31	0.787
527.52	0.781
527.73	0.775
527.93	0.782
528.14	0.784
528.35	0.778
528.56	0.779
528.76	0.774
528.97	0.767
529.18	0.760
529.39	0.760
529.59	0.762
529.80	0.785
530.01	0.766
530.22	0.766
530.42	0.744
530.63	0.756
530.84	0.739
531.05	0.749
531.25	0.751
531.46	0.745
531.67	0.729
531.88	0.742
532.08	0.737
532.29	0.733
532.50	0.728
532.70	0.723
532.91	0.716
533.12	0.718
533.33	0.736
533.53	0.714
533.74	0.714
533.95	0.718
534.15	0.709
534.36	0.709
534.57	0.697
534.78	0.698
534.98	0.706
535.19	0.683
535.40	0.684
535.60	0.697
535.81	0.682
536.02	0.684
536.23	0.678
536.43	0.679
536.64	0.669
536.85	0.675
537.05	0.682
537.26	0.664
537.47	0.667
537.67	0.660
537.88	0.657
538.09	0.664
538.30	0.655
538.50	0.648
538.71	0.656
538.92	0.647
539.12	0.643
539.33	0.639
539.54	0.639
539.74	0.643
539.95	0.636
540.16	0.633
540.36	0.626
540.57	0.627
540.78	0.622
540.98	0.622
541.19	0.620
541.40	0.611
541.60	0.619
541.81	0.616
542.02	0.615
542.22	0.606
542.43	0.603
542.64	0.598
542.84	0.597
543.05	0.591
543.26	0.591
543.46	0.593
543.67	0.592
543.88	0.588
544.08	0.580
544.29	0.576
544.50	0.577
544.70	0.578
544.91	0.570
545.12	0.571
545.32	0.567
545.53	0.571
545.74	0.563
545.94	0.560
546.15	0.558
546.35	0.556
546.56	0.554
546.77	0.551
546.97	0.549
547.18	0.543
547.39	0.544
547.59	0.544
547.80	0.540
548.01	0.543
548.21	0.540
548.42	0.533
548.62	0.534
548.83	0.531
549.04	0.528
549.24	0.522
549.45	0.522
549.65	0.519
549.86	0.515
550.07	0.514
550.27	0.512
550.48	0.518
550.69	0.506
550.89	0.506
551.10	0.503
551.30	0.502
551.51	0.501
551.72	0.492
551.92	0.494
552.13	0.494
552.33	0.494
552.54	0.490
552.75	0.484
552.95	0.486
553.16	0.482
553.36	0.481
553.57	0.480
553.78	0.479
553.98	0.479
554.19	0.472
554.39	0.470
554.60	0.472
554.80	0.472
555.01	0.466
555.22	0.468
555.42	0.465
555.63	0.459
555.83	0.462
556.04	0.457
556.25	0.460
556.45	0.452
556.66	0.450
556.86	0.453
557.07	0.451
557.27	0.450
557.48	0.445
557.68	0.443
557.89	0.443
558.10	0.441
558.30	0.438
558.51	0.436
558.71	0.434
558.92	0.430
559.12	0.432
559.33	0.435
559.54	0.431
559.74	0.427
559.95	0.425
560.15	0.426
560.36	0.423
560.56	0.418
560.77	0.419
560.97	0.419
561.18	0.414
561.38	0.413
561.59	0.415
561.79	0.411
562.00	0.409
562.21	0.406
562.41	0.405
562.62	0.404
562.82	0.402
563.03	0.400
563.23	0.400
563.44	0.400
563.64	0.397
563.85	0.399
564.05	0.393
564.26	0.393
564.46	0.393
564.67	0.393
564.87	0.390
565.08	0.387
565.28	0.388
565.49	0.388
565.69	0.385
565.90	0.382
566.10	0.385
566.31	0.379
566.51	0.381
566.72	0.382
566.92	0.376
567.13	0.375
567.33	0.375
567.54	0.373
567.74	0.372
567.95	0.368
568.15	0.370
568.36	0.369
568.56	0.368
568.77	0.364
568.97	0.362
569.18	0.362
569.38	0.361
569.59	0.362
569.79	0.360
570.00	0.357
570.20	0.355
570.41	0.354
570.61	0.353
570.82	0.354
571.02	0.350
571.23	0.352
571.43	0.348
571.64	0.347
571.84	0.345
572.05	0.344
572.25	0.344
572.45	0.343
572.66	0.340
572.86	0.339
573.07	0.338
573.27	0.338
573.48	0.337
573.68	0.333
573.89	0.333
574.09	0.334
574.30	0.332
574.50	0.330
574.70	0.331
574.91	0.328
575.11	0.328
575.32	0.328
575.52	0.325
575.73	0.325
575.93	0.324
576.14	0.323
576.34	0.321
576.54	0.321
576.75	0.320
576.95	0.319
577.16	0.318
577.36	0.317
577.57	0.317
577.77	0.315
577.97	0.312
578.18	0.315
578.38	0.312
578.59	0.310
578.79	0.309
579.00	0.309
579.20	0.307
579.40	0.307
579.61	0.306
579.81	0.305
580.02	0.303
580.22	0.302
580.42	0.301
580.63	0.301
580.83	0.300
581.04	0.298
581.24	0.298
581.45	0.297
581.65	0.297
581.85	0.296
582.06	0.294
582.26	0.294
582.47	0.293
582.67	0.293
582.87	0.292
583.08	0.290
583.28	0.290
583.48	0.288
583.69	0.286
583.89	0.286
584.10	0.287
584.30	0.285
584.50	0.283
584.71	0.283
584.91	0.283
585.12	0.280
585.32	0.281
585.52	0.279
585.73	0.279
585.93	0.278
586.13	0.277
586.34	0.276
586.54	0.276
586.75	0.274
586.95	0.273
587.15	0.273
587.36	0.272
587.56	0.271
587.76	0.270
587.97	0.269
588.17	0.268
588.37	0.267
588.58	0.268
588.78	0.265
588.98	0.266
589.19	0.265
589.39	0.263
589.60	0.265
589.80	0.262
590.00	0.262
590.21	0.262
590.41	0.260
590.61	0.260
590.82	0.259
591.02	0.259
591.22	0.257
591.43	0.258
591.63	0.256
591.83	0.256
592.04	0.254
592.24	0.255
592.44	0.253
592.65	0.251
592.85	0.252
593.05	0.252
593.26	0.251
593.46	0.250
593.66	0.250
593.86	0.250
594.07	0.248
594.27	0.248
594.47	0.247
594.68	0.246
594.88	0.247
595.08	0.246
595.29	0.246
595.49	0.244
595.69	0.243
595.90	0.242
596.10	0.243
596.30	0.242
596.50	0.241
596.71	0.241
596.91	0.240
597.11	0.239
597.32	0.239
597.52	0.238
597.72	0.238
597.93	0.237
598.13	0.236
598.33	0.236
598.53	0.235
598.74	0.235
598.94	0.234
599.14	0.233
599.35	0.233
599.55	0.233
599.75	0.232
599.95	0.231
600.16	0.232
600.36	0.230
600.56	0.231
600.76	0.229
600.97	0.228
601.17	0.228
601.37	0.228
601.58	0.227
601.78	0.227
601.98	0.226
602.18	0.224
602.39	0.225
602.59	0.225
602.79	0.224
602.99	0.224
603.20	0.222
603.40	0.222
603.60	0.222
603.80	0.222
604.01	0.221
604.21	0.221
604.41	0.221
604.61	0.220
604.82	0.219
605.02	0.220
605.22	0.219
605.42	0.219
605.62	0.219
605.83	0.218
606.03	0.217
606.23	0.217
606.43	0.217
606.64	0.217
606.84	0.216
607.04	0.215
607.24	0.215
607.45	0.215
607.65	0.214
607.85	0.215
608.05	0.213
608.25	0.213
608.46	0.212
608.66	0.212
608.86	0.211
609.06	0.210
609.26	0.209
609.47	0.210
609.67	0.209
609.87	0.210
610.07	0.209
610.28	0.207
610.48	0.208
610.68	0.208
610.88	0.207
611.08	0.208
611.29	0.207
611.49	0.206
611.69	0.207
611.89	0.205
612.09	0.205
612.29	0.204
612.50	0.204
612.70	0.204
612.90	0.203
613.10	0.202
613.30	0.201
613.51	0.201
613.71	0.201
613.91	0.205
614.11	0.200
614.31	0.200
614.51	0.200
614.72	0.199
614.92	0.198
615.12	0.198
615.32	0.199
615.52	0.198
615.72	0.198
615.93	0.198
616.13	0.197
616.33	0.197
616.53	0.196
616.73	0.196
616.93	0.195
617.14	0.196
617.34	0.196
617.54	0.196
617.74	0.195
617.94	0.195
618.14	0.194
618.34	0.194
618.55	0.193
618.75	0.193
618.95	0.193
619.15	0.193
619.35	0.192
619.55	0.191
619.75	0.192
619.96	0.191
620.16	0.191
620.36	0.191
620.56	0.191
620.76	0.190
620.96	0.190
621.16	0.190
621.36	0.190
621.57	0.191
621.77	0.191
621.97	0.190
622.17	0.189
622.37	0.189
622.57	0.190
622.77	0.189
622.97	0.188
623.18	0.188
623.38	0.188
623.58	0.188
623.78	0.187
623.98	0.187
624.18	0.186
624.38	0.186
624.58	0.186
624.78	0.186
624.98	0.187
625.19	0.186
625.39	0.186
625.59	0.186
625.79	0.186
625.99	0.185
626.19	0.185
626.39	0.185
626.59	0.185
626.79	0.185
626.99	0.184
627.19	0.184
627.40	0.184
627.60	0.183
627.80	0.183
628.00	0.182
628.20	0.182
628.40	0.182
628.60	0.181
628.80	0.180
629.00	0.180
629.20	0.179
629.40	0.179
629.60	0.178
629.80	0.178
630.00	0.178
630.20	0.178
630.41	0.177
630.61	0.177
630.81	0.177
631.01	0.177
631.21	0.176
631.41	0.176
631.61	0.177
631.81	0.176
632.01	0.176
632.21	0.176
632.41	0.175
632.61	0.175
632.81	0.175
633.01	0.176
633.21	0.175
633.41	0.176
633.61	0.174
633.81	0.174
634.01	0.174
634.21	0.173
634.41	0.173
634.61	0.173
634.81	0.172
635.01	0.172
