SpectraSuite Data File
++++++++++++++++++++++++++++++++++++
Date: Mon May 20 12:10:47 CDT 2013
User: Students
Dark Spectrum Present: Yes
Reference Spectrum Present: Yes
Number of Sampled Component Spectra: 1
Spectrometers: USB4H00887
Integration Time (usec): 60000 (USB4H00887)
Spectra Averaged: 5 (USB4H00887)
Boxcar Smoothing: 5 (USB4H00887)
Correct for Electrical Dark: No (USB4H00887)
Strobe/Lamp Enabled: No (USB4H00887)
Correct for Detector Non-linearity: No (USB4H00887)
Correct for Stray Light: No (USB4H00887)
Number of Pixels in Processed Spectrum: 3648
>>>>>Begin Processed Spectral Data<<<<<
345.83	0.151
346.05	0.151
346.26	0.151
346.48	-0.000
346.70	-0.013
346.92	0.057
347.14	0.058
347.35	0.068
347.57	0.761
347.79	-0.326
348.01	-0.196
348.23	-0.296
348.44	-0.000
348.66	0.391
348.88	-0.430
349.10	-0.215
349.32	0.071
349.53	0.009
349.75	0.040
349.97	0.022
350.19	0.105
350.41	0.055
350.62	-0.223
350.84	0.027
351.06	0.035
351.28	0.014
351.50	-0.093
351.71	-0.054
351.93	-0.083
352.15	-0.032
352.37	-0.077
352.58	-0.042
352.80	-0.020
353.02	-0.023
353.24	-0.008
353.46	0.013
353.67	-0.070
353.89	0.045
354.11	0.041
354.33	0.045
354.54	0.092
354.76	0.159
354.98	0.337
355.20	0.327
355.41	0.123
355.63	0.244
355.85	0.120
356.07	-0.000
356.28	0.077
356.50	0.132
356.72	0.043
356.94	0.103
357.15	0.176
357.37	-0.000
357.59	0.095
357.81	0.031
358.02	0.075
358.24	0.057
358.46	0.135
358.68	0.120
358.89	0.059
359.11	-0.000
359.33	0.064
359.55	-0.430
359.76	0.078
359.98	0.058
360.20	0.080
360.42	0.068
360.63	0.068
360.85	0.021
361.07	0.186
361.29	0.053
361.50	0.208
361.72	0.069
361.94	0.254
362.15	0.110
362.37	0.073
362.59	0.082
362.81	0.118
363.02	0.201
363.24	0.352
363.46	0.210
363.68	0.260
363.89	0.157
364.11	0.240
364.33	0.292
364.54	0.169
364.76	0.210
364.98	0.224
365.20	0.253
365.41	0.145
365.63	0.157
365.85	0.087
366.06	0.221
366.28	0.274
366.50	0.170
366.71	0.075
366.93	0.123
367.15	0.127
367.37	0.108
367.58	0.140
367.80	0.168
368.02	0.524
368.23	0.177
368.45	0.176
368.67	0.128
368.88	0.148
369.10	-0.000
369.32	0.118
369.53	0.059
369.75	0.113
369.97	0.274
370.19	0.149
370.40	0.070
370.62	0.240
370.84	0.094
371.05	0.559
371.27	0.134
371.49	0.160
371.70	0.209
371.92	0.336
372.14	0.117
372.35	0.135
372.57	0.155
372.79	0.428
373.00	0.092
373.22	0.159
373.44	0.152
373.65	0.106
373.87	0.134
374.09	0.484
374.30	0.113
374.52	0.152
374.74	0.101
374.95	0.451
375.17	0.112
375.39	-0.000
375.60	0.125
375.82	0.242
376.04	0.093
376.25	0.124
376.47	0.067
376.68	0.164
376.90	0.095
377.12	0.185
377.33	0.121
377.55	0.256
377.77	0.144
377.98	0.199
378.20	0.112
378.42	0.160
378.63	0.194
378.85	-0.000
379.07	0.157
379.28	0.509
379.50	0.315
379.71	0.156
379.93	0.123
380.15	0.147
380.36	0.211
380.58	0.149
380.80	0.395
381.01	0.125
381.23	0.097
381.44	0.121
381.66	0.146
381.88	0.191
382.09	-0.088
382.31	0.144
382.53	0.155
382.74	1.088
382.96	0.212
383.17	0.173
383.39	0.236
383.61	0.324
383.82	0.216
384.04	0.258
384.25	0.308
384.47	0.293
384.69	0.284
384.90	0.272
385.12	0.649
385.33	0.369
385.55	0.261
385.77	0.428
385.98	0.198
386.20	0.274
386.41	0.255
386.63	0.301
386.85	0.241
387.06	0.282
387.28	0.450
387.49	0.284
387.71	0.201
387.93	0.186
388.14	0.529
388.36	0.207
388.57	0.193
388.79	0.208
389.01	1.408
389.22	0.274
389.44	0.238
389.65	0.195
389.87	0.191
390.08	0.232
390.30	0.184
390.52	0.379
390.73	0.410
390.95	0.268
391.16	0.249
391.38	-0.000
391.59	0.275
391.81	0.225
392.03	0.214
392.24	0.240
392.46	0.204
392.67	0.176
392.89	0.236
393.10	0.367
393.32	0.245
393.53	0.288
393.75	0.183
393.97	0.215
394.18	0.298
394.40	0.269
394.61	0.282
394.83	0.242
395.04	0.294
395.26	0.212
395.47	0.316
395.69	0.279
395.91	0.303
396.12	0.358
396.34	0.346
396.55	0.222
396.77	0.308
396.98	1.652
397.20	0.392
397.41	0.426
397.63	0.283
397.84	0.257
398.06	0.237
398.27	0.239
398.49	0.282
398.71	0.211
398.92	0.256
399.14	0.346
399.35	0.432
399.57	0.417
399.78	0.278
400.00	0.283
400.21	0.352
400.43	0.277
400.64	0.297
400.86	0.658
401.07	0.356
401.29	0.307
401.50	0.319
401.72	0.452
401.93	0.283
402.15	0.363
402.36	0.333
402.58	0.273
402.79	0.308
403.01	0.495
403.22	0.387
403.44	0.264
403.65	0.433
403.87	0.493
404.08	0.389
404.30	0.677
404.51	0.340
404.73	0.401
404.94	0.344
405.16	0.353
405.37	0.275
405.59	0.481
405.80	0.301
406.02	0.357
406.23	0.358
406.45	0.395
406.66	0.405
406.88	0.268
407.09	0.402
407.31	0.321
407.52	0.401
407.74	0.321
407.95	0.381
408.17	0.363
408.38	0.383
408.60	0.255
408.81	0.415
409.03	0.322
409.24	0.320
409.45	0.373
409.67	0.356
409.88	0.304
410.10	0.391
410.31	0.333
410.53	0.314
410.74	0.442
410.96	0.438
411.17	0.479
411.39	0.371
411.60	0.354
411.82	0.402
412.03	0.384
412.24	0.368
412.46	0.547
412.67	0.453
412.89	0.460
413.10	0.442
413.32	0.395
413.53	0.451
413.75	0.457
413.96	0.346
414.17	0.459
414.39	0.476
414.60	0.405
414.82	0.532
415.03	0.408
415.25	0.439
415.46	0.308
415.68	0.427
415.89	0.747
416.10	0.647
416.32	0.357
416.53	0.415
416.75	0.397
416.96	0.474
417.18	0.403
417.39	0.387
417.60	0.393
417.82	0.579
418.03	0.512
418.25	0.422
418.46	0.425
418.67	0.399
418.89	0.435
419.10	0.441
419.32	0.584
419.53	0.525
419.75	0.446
419.96	0.397
420.17	0.486
420.39	0.463
420.60	0.491
420.82	0.623
421.03	0.503
421.24	0.417
421.46	0.464
421.67	0.500
421.89	0.447
422.10	0.492
422.31	0.477
422.53	0.649
422.74	0.488
422.96	0.387
423.17	0.423
423.38	0.511
423.60	0.440
423.81	0.545
424.03	0.476
424.24	0.531
424.45	0.525
424.67	0.524
424.88	0.479
425.09	0.508
425.31	0.466
425.52	0.486
425.74	0.532
425.95	0.564
426.16	0.447
426.38	0.512
426.59	0.469
426.80	0.524
427.02	0.543
427.23	0.430
427.45	0.550
427.66	0.538
427.87	0.439
428.09	0.466
428.30	0.523
428.51	0.512
428.73	0.566
428.94	0.505
429.15	0.499
429.37	0.487
429.58	0.518
429.79	0.473
430.01	0.561
430.22	0.544
430.44	0.552
430.65	0.493
430.86	0.530
431.08	0.518
431.29	0.474
431.50	0.552
431.72	0.710
431.93	0.588
432.14	0.460
432.36	0.507
432.57	0.520
432.78	0.543
433.00	0.501
433.21	0.493
433.42	0.598
433.64	0.526
433.85	0.588
434.06	0.483
434.28	0.504
434.49	0.520
434.70	0.534
434.92	0.544
435.13	0.580
435.34	0.593
435.56	0.566
435.77	0.562
435.98	0.708
436.20	0.609
436.41	0.528
436.62	0.519
436.83	0.580
437.05	0.637
437.26	0.560
437.47	0.506
437.69	0.545
437.90	0.501
438.11	0.493
438.33	0.540
438.54	0.554
438.75	0.697
438.97	0.689
439.18	0.533
439.39	0.557
439.60	0.603
439.82	0.569
440.03	0.534
440.24	0.762
440.46	0.587
440.67	0.563
440.88	0.600
441.10	0.556
441.31	0.552
441.52	0.593
441.73	0.659
441.95	0.590
442.16	0.547
442.37	0.816
442.58	0.542
442.80	0.530
443.01	0.674
443.22	0.614
443.44	0.532
443.65	0.625
443.86	0.627
444.07	0.677
444.29	0.592
444.50	0.739
444.71	0.574
444.92	0.540
445.14	0.676
445.35	0.708
445.56	0.570
445.78	0.669
445.99	0.663
446.20	0.574
446.41	0.635
446.63	0.637
446.84	0.600
447.05	0.602
447.26	0.705
447.48	0.611
447.69	0.583
447.90	0.661
448.11	0.589
448.33	0.615
448.54	0.635
448.75	0.663
448.96	0.674
449.18	0.717
449.39	0.639
449.60	0.620
449.81	0.738
450.03	0.644
450.24	0.688
450.45	0.653
450.66	0.633
450.87	0.661
451.09	0.620
451.30	0.599
451.51	0.656
451.72	0.668
451.94	0.683
452.15	0.739
452.36	0.631
452.57	0.651
452.78	0.651
453.00	0.682
453.21	0.640
453.42	0.618
453.63	0.702
453.85	0.671
454.06	0.664
454.27	0.770
454.48	0.686
454.69	0.627
454.91	0.683
455.12	0.604
455.33	0.666
455.54	0.678
455.75	0.659
455.97	0.676
456.18	0.670
456.39	0.673
456.60	0.694
456.81	0.649
457.03	0.659
457.24	0.663
457.45	0.740
457.66	0.699
457.87	0.668
458.09	0.683
458.30	0.610
458.51	0.711
458.72	0.735
458.93	0.747
459.15	0.666
459.36	0.721
459.57	0.739
459.78	0.772
459.99	0.698
460.20	0.663
460.42	0.728
460.63	0.695
460.84	0.682
461.05	0.700
461.26	0.745
461.47	0.675
461.69	0.717
461.90	0.746
462.11	0.714
462.32	0.759
462.53	0.713
462.74	0.791
462.96	0.701
463.17	0.690
463.38	0.723
463.59	0.817
463.80	0.693
464.01	0.711
464.23	0.782
464.44	0.752
464.65	0.759
464.86	0.776
465.07	0.781
465.28	0.743
465.49	0.762
465.71	0.726
465.92	0.755
466.13	0.792
466.34	0.738
466.55	0.781
466.76	0.747
466.97	0.764
467.19	0.758
467.40	0.793
467.61	0.799
467.82	0.733
468.03	0.720
468.24	0.779
468.45	0.805
468.66	0.792
468.88	0.794
469.09	0.798
469.30	0.839
469.51	0.773
469.72	0.799
469.93	0.776
470.14	0.759
470.35	0.827
470.57	0.785
470.78	0.741
470.99	0.839
471.20	0.794
471.41	0.760
471.62	0.798
471.83	0.779
472.04	0.804
472.25	0.834
472.47	0.770
472.68	0.776
472.89	0.782
473.10	0.812
473.31	0.777
473.52	0.825
473.73	0.839
473.94	0.783
474.15	0.804
474.36	0.805
474.57	0.825
474.79	0.805
475.00	0.801
475.21	0.789
475.42	0.859
475.63	0.786
475.84	0.810
476.05	0.816
476.26	0.789
476.47	0.814
476.68	0.850
476.89	0.796
477.10	0.838
477.32	0.832
477.53	0.873
477.74	0.811
477.95	0.840
478.16	0.803
478.37	0.837
478.58	0.841
478.79	0.851
479.00	0.851
479.21	0.823
479.42	0.850
479.63	0.852
479.84	0.822
480.05	0.820
480.26	0.842
480.47	0.856
480.69	0.861
480.90	0.834
481.11	0.832
481.32	0.879
481.53	0.832
481.74	0.874
481.95	0.850
482.16	0.867
482.37	0.876
482.58	0.849
482.79	0.862
483.00	0.883
483.21	0.838
483.42	0.816
483.63	0.875
483.84	0.895
484.05	0.888
484.26	0.865
484.47	0.863
484.68	0.834
484.89	0.840
485.10	0.875
485.31	0.857
485.52	0.863
485.73	0.864
485.94	0.894
486.15	0.854
486.37	0.866
486.58	0.838
486.79	0.849
487.00	0.887
487.21	0.879
487.42	0.878
487.63	0.881
487.84	0.897
488.05	0.896
488.26	0.864
488.47	0.869
488.68	0.891
488.89	0.874
489.10	0.869
489.31	0.876
489.52	0.901
489.73	0.874
489.94	0.904
490.15	0.871
490.36	0.902
490.57	0.866
490.78	0.853
490.99	0.883
491.20	0.940
491.41	0.906
491.62	0.863
491.83	0.885
492.04	0.881
492.25	0.885
492.45	0.886
492.66	0.902
492.87	0.894
493.08	0.884
493.29	0.875
493.50	0.868
493.71	0.874
493.92	0.871
494.13	0.885
494.34	0.904
494.55	0.911
494.76	0.936
494.97	0.929
495.18	0.904
495.39	0.917
495.60	0.875
495.81	0.876
496.02	0.895
496.23	0.891
496.44	0.913
496.65	0.903
496.86	0.905
497.07	0.923
497.28	0.922
497.49	0.883
497.70	0.884
497.91	0.902
498.12	0.889
498.32	0.919
498.53	0.908
498.74	0.902
498.95	0.922
499.16	0.889
499.37	0.890
499.58	0.896
499.79	0.920
500.00	0.916
500.21	0.937
500.42	0.897
500.63	0.899
500.84	0.915
501.05	0.900
501.26	0.920
501.46	0.950
501.67	0.922
501.88	0.923
502.09	0.903
502.30	0.909
502.51	0.945
502.72	0.909
502.93	0.922
503.14	0.938
503.35	0.916
503.56	0.913
503.77	0.936
503.97	0.920
504.18	0.918
504.39	0.944
504.60	0.923
504.81	0.945
505.02	0.936
505.23	0.937
505.44	0.920
505.65	0.926
505.86	0.910
506.07	0.960
506.27	0.929
506.48	0.934
506.69	0.922
506.90	0.937
507.11	0.934
507.32	0.917
507.53	0.925
507.74	0.920
507.95	0.929
508.15	0.934
508.36	0.939
508.57	0.948
508.78	0.936
508.99	0.934
509.20	0.915
509.41	0.935
509.62	0.925
509.82	0.921
510.03	0.929
510.24	0.928
510.45	0.946
510.66	0.938
510.87	0.934
511.08	0.905
511.29	0.938
511.49	0.922
511.70	0.955
511.91	0.904
512.12	0.902
512.33	0.927
512.54	0.939
512.75	0.926
512.95	0.945
513.16	0.938
513.37	0.919
513.58	0.946
513.79	0.918
514.00	0.924
514.20	0.935
514.41	0.927
514.62	0.904
514.83	0.936
515.04	0.930
515.25	0.915
515.46	0.925
515.66	0.926
515.87	0.935
516.08	0.914
516.29	0.932
516.50	0.920
516.71	0.914
516.91	0.922
517.12	0.934
517.33	0.921
517.54	0.910
517.75	0.913
517.95	0.923
518.16	0.933
518.37	0.906
518.58	0.909
518.79	0.888
519.00	0.912
519.20	0.918
519.41	0.896
519.62	0.914
519.83	0.920
520.04	0.894
520.24	0.891
520.45	0.899
520.66	0.917
520.87	0.889
521.08	0.889
521.28	0.892
521.49	0.906
521.70	0.883
521.91	0.891
522.12	0.877
522.32	0.892
522.53	0.878
522.74	0.869
522.95	0.875
523.16	0.877
523.36	0.884
523.57	0.868
523.78	0.863
523.99	0.866
524.20	0.861
524.40	0.871
524.61	0.875
524.82	0.856
525.03	0.858
525.23	0.859
525.44	0.847
525.65	0.845
525.86	0.863
526.06	0.840
526.27	0.841
526.48	0.847
526.69	0.832
526.90	0.835
527.10	0.861
527.31	0.827
527.52	0.822
527.73	0.816
527.93	0.825
528.14	0.829
528.35	0.821
528.56	0.821
528.76	0.815
528.97	0.807
529.18	0.799
529.39	0.799
529.59	0.801
529.80	0.825
530.01	0.803
530.22	0.800
530.42	0.776
530.63	0.789
530.84	0.771
531.05	0.782
531.25	0.783
531.46	0.778
531.67	0.761
531.88	0.775
532.08	0.771
532.29	0.766
532.50	0.761
532.70	0.756
532.91	0.748
533.12	0.750
533.33	0.770
533.53	0.747
533.74	0.747
533.95	0.751
534.15	0.741
534.36	0.741
534.57	0.727
534.78	0.727
534.98	0.735
535.19	0.711
535.40	0.712
535.60	0.725
535.81	0.708
536.02	0.710
536.23	0.704
536.43	0.706
536.64	0.695
536.85	0.702
537.05	0.708
537.26	0.690
537.47	0.691
537.67	0.683
537.88	0.678
538.09	0.685
538.30	0.676
538.50	0.668
538.71	0.678
538.92	0.667
539.12	0.663
539.33	0.659
539.54	0.659
539.74	0.663
539.95	0.656
540.16	0.654
540.36	0.647
540.57	0.647
540.78	0.639
540.98	0.638
541.19	0.635
541.40	0.625
541.60	0.633
541.81	0.628
542.02	0.628
542.22	0.619
542.43	0.614
542.64	0.610
542.84	0.610
543.05	0.604
543.26	0.604
543.46	0.606
543.67	0.606
543.88	0.602
544.08	0.594
544.29	0.590
544.50	0.590
544.70	0.590
544.91	0.583
545.12	0.585
545.32	0.580
545.53	0.583
545.74	0.573
545.94	0.570
546.15	0.568
546.35	0.566
546.56	0.563
546.77	0.561
546.97	0.559
547.18	0.552
547.39	0.552
547.59	0.550
547.80	0.546
548.01	0.550
548.21	0.546
548.42	0.540
548.62	0.539
548.83	0.536
549.04	0.533
549.24	0.527
549.45	0.526
549.65	0.523
549.86	0.520
550.07	0.519
550.27	0.517
550.48	0.524
550.69	0.511
550.89	0.511
551.10	0.507
551.30	0.505
551.51	0.505
551.72	0.496
551.92	0.497
552.13	0.497
552.33	0.496
552.54	0.491
552.75	0.485
552.95	0.487
553.16	0.483
553.36	0.481
553.57	0.480
553.78	0.478
553.98	0.478
554.19	0.471
554.39	0.468
554.60	0.471
554.80	0.471
555.01	0.464
555.22	0.465
555.42	0.462
555.63	0.457
555.83	0.460
556.04	0.455
556.25	0.456
556.45	0.448
556.66	0.447
556.86	0.450
557.07	0.448
557.27	0.448
557.48	0.443
557.68	0.440
557.89	0.441
558.10	0.438
558.30	0.435
558.51	0.435
558.71	0.432
558.92	0.428
559.12	0.429
559.33	0.432
559.54	0.427
559.74	0.423
559.95	0.421
560.15	0.421
560.36	0.419
560.56	0.414
560.77	0.413
560.97	0.413
561.18	0.409
561.38	0.408
561.59	0.411
561.79	0.407
562.00	0.406
562.21	0.403
562.41	0.402
562.62	0.402
562.82	0.400
563.03	0.398
563.23	0.398
563.44	0.397
563.64	0.394
563.85	0.395
564.05	0.389
564.26	0.388
564.46	0.387
564.67	0.388
564.87	0.384
565.08	0.381
565.28	0.381
565.49	0.382
565.69	0.380
565.90	0.377
566.10	0.379
566.31	0.374
566.51	0.376
566.72	0.376
566.92	0.371
567.13	0.371
567.33	0.370
567.54	0.368
567.74	0.367
567.95	0.363
568.15	0.364
568.36	0.364
568.56	0.363
568.77	0.358
568.97	0.357
569.18	0.356
569.38	0.355
569.59	0.355
569.79	0.353
570.00	0.350
570.20	0.350
570.41	0.348
570.61	0.346
570.82	0.347
571.02	0.343
571.23	0.345
571.43	0.341
571.64	0.340
571.84	0.339
572.05	0.337
572.25	0.337
572.45	0.336
572.66	0.333
572.86	0.332
573.07	0.331
573.27	0.332
573.48	0.331
573.68	0.327
573.89	0.327
574.09	0.328
574.30	0.327
574.50	0.325
574.70	0.325
574.91	0.323
575.11	0.323
575.32	0.323
575.52	0.319
575.73	0.319
575.93	0.318
576.14	0.317
576.34	0.315
576.54	0.314
576.75	0.312
576.95	0.311
577.16	0.310
577.36	0.309
577.57	0.309
577.77	0.308
577.97	0.305
578.18	0.307
578.38	0.304
578.59	0.303
578.79	0.301
579.00	0.302
579.20	0.301
579.40	0.300
579.61	0.298
579.81	0.298
580.02	0.295
580.22	0.295
580.42	0.294
580.63	0.294
580.83	0.293
581.04	0.292
581.24	0.291
581.45	0.290
581.65	0.290
581.85	0.289
582.06	0.287
582.26	0.287
582.47	0.286
582.67	0.285
582.87	0.284
583.08	0.282
583.28	0.282
583.48	0.281
583.69	0.278
583.89	0.278
584.10	0.279
584.30	0.277
584.50	0.275
584.71	0.275
584.91	0.275
585.12	0.273
585.32	0.274
585.52	0.272
585.73	0.270
585.93	0.270
586.13	0.270
586.34	0.268
586.54	0.268
586.75	0.267
586.95	0.266
587.15	0.266
587.36	0.265
587.56	0.264
587.76	0.263
587.97	0.263
588.17	0.261
588.37	0.261
588.58	0.261
588.78	0.258
588.98	0.259
589.19	0.258
589.39	0.256
589.60	0.258
589.80	0.255
590.00	0.254
590.21	0.254
590.41	0.253
590.61	0.253
590.82	0.252
591.02	0.252
591.22	0.250
591.43	0.251
591.63	0.249
591.83	0.248
592.04	0.247
592.24	0.248
592.44	0.245
592.65	0.244
592.85	0.244
593.05	0.245
593.26	0.243
593.46	0.243
593.66	0.243
593.86	0.243
594.07	0.241
594.27	0.241
594.47	0.240
594.68	0.239
594.88	0.240
595.08	0.239
595.29	0.239
595.49	0.236
595.69	0.236
595.90	0.235
596.10	0.235
596.30	0.235
596.50	0.234
596.71	0.234
596.91	0.233
597.11	0.233
597.32	0.233
597.52	0.232
597.72	0.232
597.93	0.231
598.13	0.229
598.33	0.230
598.53	0.229
598.74	0.228
598.94	0.227
599.14	0.227
599.35	0.227
599.55	0.226
599.75	0.225
599.95	0.224
600.16	0.225
600.36	0.223
600.56	0.223
600.76	0.223
600.97	0.221
601.17	0.221
601.37	0.221
601.58	0.220
601.78	0.220
601.98	0.219
602.18	0.218
602.39	0.218
602.59	0.218
602.79	0.217
602.99	0.216
603.20	0.215
603.40	0.215
603.60	0.215
603.80	0.215
604.01	0.215
604.21	0.214
604.41	0.213
604.61	0.212
604.82	0.212
605.02	0.212
605.22	0.211
605.42	0.211
605.62	0.211
605.83	0.209
606.03	0.209
606.23	0.209
606.43	0.209
606.64	0.208
606.84	0.208
607.04	0.208
607.24	0.208
607.45	0.208
607.65	0.207
607.85	0.208
608.05	0.207
608.25	0.206
608.46	0.205
608.66	0.205
608.86	0.205
609.06	0.204
609.26	0.203
609.47	0.203
609.67	0.202
609.87	0.203
610.07	0.202
610.28	0.200
610.48	0.200
610.68	0.200
610.88	0.199
611.08	0.200
611.29	0.198
611.49	0.198
611.69	0.199
611.89	0.197
612.09	0.196
612.29	0.196
612.50	0.196
612.70	0.196
612.90	0.195
613.10	0.194
613.30	0.194
613.51	0.194
613.71	0.194
613.91	0.197
614.11	0.193
614.31	0.192
614.51	0.192
614.72	0.191
614.92	0.191
615.12	0.191
615.32	0.192
615.52	0.191
615.72	0.191
615.93	0.191
616.13	0.190
616.33	0.190
616.53	0.190
616.73	0.190
616.93	0.189
617.14	0.190
617.34	0.189
617.54	0.189
617.74	0.189
617.94	0.188
618.14	0.187
618.34	0.187
618.55	0.187
618.75	0.187
618.95	0.187
619.15	0.187
619.35	0.186
619.55	0.185
619.75	0.186
619.96	0.185
620.16	0.185
620.36	0.185
620.56	0.184
620.76	0.184
620.96	0.183
621.16	0.183
621.36	0.183
621.57	0.183
621.77	0.183
621.97	0.182
622.17	0.182
622.37	0.182
622.57	0.182
622.77	0.181
622.97	0.180
623.18	0.180
623.38	0.180
623.58	0.180
623.78	0.179
623.98	0.179
624.18	0.178
624.38	0.177
624.58	0.178
624.78	0.178
624.98	0.178
625.19	0.178
625.39	0.178
625.59	0.177
625.79	0.177
625.99	0.176
626.19	0.176
626.39	0.176
626.59	0.176
626.79	0.176
626.99	0.176
627.19	0.176
627.40	0.177
627.60	0.176
627.80	0.175
628.00	0.175
628.20	0.174
628.40	0.174
628.60	0.174
628.80	0.172
629.00	0.173
629.20	0.172
629.40	0.172
629.60	0.171
629.80	0.171
630.00	0.172
630.20	0.172
630.41	0.171
630.61	0.171
630.81	0.171
631.01	0.171
631.21	0.170
631.41	0.170
631.61	0.170
631.81	0.170
632.01	0.169
632.21	0.169
632.41	0.168
632.61	0.168
632.81	0.168
633.01	0.169
633.21	0.168
633.41	0.169
633.61	0.168
633.81	0.168
634.01	0.167
634.21	0.167
634.41	0.166
634.61	0.167
634.81	0.166
635.01	0.166
635.22	0.166
