SpectraSuite Data File
++++++++++++++++++++++++++++++++++++
Date: Mon May 20 12:13:38 CDT 2013
User: Students
Dark Spectrum Present: Yes
Reference Spectrum Present: Yes
Number of Sampled Component Spectra: 1
Spectrometers: USB4H00887
Integration Time (usec): 60000 (USB4H00887)
Spectra Averaged: 5 (USB4H00887)
Boxcar Smoothing: 5 (USB4H00887)
Correct for Electrical Dark: No (USB4H00887)
Strobe/Lamp Enabled: No (USB4H00887)
Correct for Detector Non-linearity: No (USB4H00887)
Correct for Stray Light: No (USB4H00887)
Number of Pixels in Processed Spectrum: 3648
>>>>>Begin Processed Spectral Data<<<<<
345.83	0.232
346.05	0.232
346.26	0.232
346.48	-0.000
346.70	0.176
346.92	0.014
347.14	0.038
347.35	0.047
347.57	0.340
347.79	-0.238
348.01	-0.185
348.23	-0.341
348.44	-0.000
348.66	0.319
348.88	-0.411
349.10	-0.172
349.32	0.077
349.53	-0.010
349.75	-0.036
349.97	0.006
350.19	0.049
350.41	0.089
350.62	-0.330
350.84	0.036
351.06	0.037
351.28	0.027
351.50	0.054
351.71	0.143
351.93	0.069
352.15	0.032
352.37	0.076
352.58	0.038
352.80	0.040
353.02	0.078
353.24	0.100
353.46	1.100
353.67	-0.246
353.89	0.083
354.11	0.054
354.33	0.076
354.54	0.113
354.76	0.185
354.98	0.243
355.20	0.185
355.41	0.056
355.63	0.129
355.85	0.056
356.07	0.779
356.28	0.064
356.50	0.138
356.72	0.062
356.94	0.180
357.15	0.318
357.37	-0.000
357.59	0.180
357.81	0.127
358.02	0.196
358.24	0.134
358.46	0.295
358.68	0.281
358.89	0.140
359.11	-0.000
359.33	0.124
359.55	-0.608
359.76	0.144
359.98	0.162
360.20	0.205
360.42	0.158
360.63	0.190
360.85	0.142
361.07	1.673
361.29	0.127
361.50	0.442
361.72	0.145
361.94	0.791
362.15	0.216
362.37	0.127
362.59	0.114
362.81	0.185
363.02	0.308
363.24	0.413
363.46	0.213
363.68	0.279
363.89	0.163
364.11	0.202
364.33	0.296
364.54	0.171
364.76	0.198
364.98	0.180
365.20	0.225
365.41	0.135
365.63	0.161
365.85	0.106
366.06	0.351
366.28	0.343
366.50	0.269
366.71	0.087
366.93	0.138
367.15	0.135
367.37	0.143
367.58	0.173
367.80	0.224
368.02	1.189
368.23	0.240
368.45	0.239
368.67	0.220
368.88	0.202
369.10	-0.000
369.32	0.221
369.53	0.120
369.75	0.179
369.97	0.531
370.19	0.259
370.40	0.092
370.62	0.241
370.84	0.094
371.05	0.446
371.27	0.104
371.49	0.133
371.70	0.123
371.92	0.228
372.14	0.113
372.35	0.120
372.57	0.131
372.79	0.373
373.00	0.100
373.22	0.178
373.44	0.196
373.65	0.163
373.87	0.227
374.09	-0.000
374.30	0.193
374.52	0.207
374.74	0.149
374.95	0.943
375.17	0.171
375.39	-0.000
375.60	0.173
375.82	0.320
376.04	0.124
376.25	0.125
376.47	0.075
376.68	0.190
376.90	0.122
377.12	0.248
377.33	0.130
377.55	0.328
377.77	0.162
377.98	0.262
378.20	0.149
378.42	0.203
378.63	0.298
378.85	-0.000
379.07	0.182
379.28	0.823
379.50	0.417
379.71	0.213
379.93	0.146
380.15	0.194
380.36	0.278
380.58	0.189
380.80	0.450
381.01	0.140
381.23	0.122
381.44	0.128
381.66	0.146
381.88	0.175
382.09	-0.083
382.31	0.125
382.53	0.129
382.74	0.770
382.96	0.180
383.17	0.162
383.39	0.204
383.61	0.256
383.82	0.183
384.04	0.217
384.25	0.276
384.47	0.238
384.69	0.238
384.90	0.216
385.12	0.449
385.33	0.299
385.55	0.212
385.77	0.342
385.98	0.179
386.20	0.248
386.41	0.218
386.63	0.264
386.85	0.222
387.06	0.259
387.28	0.414
387.49	0.241
387.71	0.176
387.93	0.156
388.14	0.448
388.36	0.193
388.57	0.186
388.79	0.204
389.01	1.322
389.22	0.258
389.44	0.232
389.65	0.189
389.87	0.198
390.08	0.246
390.30	0.193
390.52	0.381
390.73	0.368
390.95	0.252
391.16	0.244
391.38	-0.000
391.59	0.272
391.81	0.227
392.03	0.219
392.24	0.250
392.46	0.211
392.67	0.190
392.89	0.257
393.10	0.384
393.32	0.255
393.53	0.303
393.75	0.192
393.97	0.220
394.18	0.307
394.40	0.269
394.61	0.280
394.83	0.238
395.04	0.278
395.26	0.193
395.47	0.296
395.69	0.239
395.91	0.253
396.12	0.313
396.34	0.318
396.55	0.198
396.77	0.295
396.98	1.079
397.20	0.370
397.41	0.424
397.63	0.292
397.84	0.259
398.06	0.253
398.27	0.255
398.49	0.285
398.71	0.207
398.92	0.252
399.14	0.318
399.35	0.403
399.57	0.370
399.78	0.256
400.00	0.253
400.21	0.328
400.43	0.279
400.64	0.299
400.86	0.691
401.07	0.381
401.29	0.333
401.50	0.367
401.72	0.561
401.93	0.331
402.15	0.392
402.36	0.349
402.58	0.284
402.79	0.303
403.01	0.498
403.22	0.392
403.44	0.255
403.65	0.396
403.87	0.431
404.08	0.339
404.30	0.563
404.51	0.321
404.73	0.397
404.94	0.339
405.16	0.357
405.37	0.277
405.59	0.502
405.80	0.329
406.02	0.433
406.23	0.431
406.45	0.497
406.66	0.537
406.88	0.340
407.09	0.534
407.31	0.426
407.52	0.502
407.74	0.411
407.95	0.481
408.17	0.432
408.38	0.440
408.60	0.283
408.81	0.467
409.03	0.343
409.24	0.342
409.45	0.398
409.67	0.381
409.88	0.352
410.10	0.442
410.31	0.380
410.53	0.368
410.74	0.526
410.96	0.518
411.17	0.551
411.39	0.421
411.60	0.386
411.82	0.441
412.03	0.422
412.24	0.409
412.46	0.602
412.67	0.484
412.89	0.474
413.10	0.468
413.32	0.423
413.53	0.481
413.75	0.508
413.96	0.385
414.17	0.525
414.39	0.522
414.60	0.435
414.82	0.591
415.03	0.450
415.25	0.502
415.46	0.343
415.68	0.497
415.89	1.021
416.10	0.764
416.32	0.401
416.53	0.475
416.75	0.455
416.96	0.544
417.18	0.463
417.39	0.448
417.60	0.455
417.82	0.683
418.03	0.570
418.25	0.476
418.46	0.491
418.67	0.447
418.89	0.483
419.10	0.501
419.32	0.687
419.53	0.626
419.75	0.518
419.96	0.451
420.17	0.555
420.39	0.524
420.60	0.535
420.82	0.664
421.03	0.526
421.24	0.434
421.46	0.483
421.67	0.522
421.89	0.451
422.10	0.488
422.31	0.478
422.53	0.683
422.74	0.505
422.96	0.403
423.17	0.458
423.38	0.564
423.60	0.478
423.81	0.599
424.03	0.518
424.24	0.577
424.45	0.569
424.67	0.570
424.88	0.509
425.09	0.557
425.31	0.515
425.52	0.543
425.74	0.614
425.95	0.674
426.16	0.516
426.38	0.598
426.59	0.548
426.80	0.638
427.02	0.673
427.23	0.521
427.45	0.693
427.66	0.674
427.87	0.516
428.09	0.552
428.30	0.611
428.51	0.596
428.73	0.657
428.94	0.580
429.15	0.555
429.37	0.524
429.58	0.550
429.79	0.510
430.01	0.614
430.22	0.604
430.44	0.625
430.65	0.566
430.86	0.607
431.08	0.590
431.29	0.535
431.50	0.646
431.72	0.893
431.93	0.698
432.14	0.515
432.36	0.565
432.57	0.570
432.78	0.585
433.00	0.538
433.21	0.535
433.42	0.670
433.64	0.589
433.85	0.668
434.06	0.535
434.28	0.568
434.49	0.586
434.70	0.598
434.92	0.616
435.13	0.668
435.34	0.678
435.56	0.638
435.77	0.628
435.98	0.823
436.20	0.676
436.41	0.583
436.62	0.574
436.83	0.655
437.05	0.747
437.26	0.649
437.47	0.573
437.69	0.629
437.90	0.582
438.11	0.575
438.33	0.622
438.54	0.641
438.75	0.830
438.97	0.809
439.18	0.604
439.39	0.634
439.60	0.687
439.82	0.639
440.03	0.585
440.24	0.856
440.46	0.638
440.67	0.618
440.88	0.663
441.10	0.617
441.31	0.624
441.52	0.676
441.73	0.750
441.95	0.666
442.16	0.618
442.37	0.999
442.58	0.613
442.80	0.599
443.01	0.781
443.22	0.709
443.44	0.601
443.65	0.705
443.86	0.705
444.07	0.763
444.29	0.647
444.50	0.815
444.71	0.620
444.92	0.574
445.14	0.728
445.35	0.767
445.56	0.613
445.78	0.734
445.99	0.730
446.20	0.626
446.41	0.710
446.63	0.722
446.84	0.687
447.05	0.688
447.26	0.833
447.48	0.709
447.69	0.672
447.90	0.763
448.11	0.666
448.33	0.690
448.54	0.714
448.75	0.742
448.96	0.751
449.18	0.797
449.39	0.710
449.60	0.695
449.81	0.837
450.03	0.715
450.24	0.781
450.45	0.737
450.66	0.722
450.87	0.750
451.09	0.701
451.30	0.679
451.51	0.749
451.72	0.753
451.94	0.773
452.15	0.838
452.36	0.700
452.57	0.719
452.78	0.717
453.00	0.748
453.21	0.707
453.42	0.680
453.63	0.779
453.85	0.746
454.06	0.739
454.27	0.868
454.48	0.774
454.69	0.701
454.91	0.774
455.12	0.673
455.33	0.759
455.54	0.774
455.75	0.747
455.97	0.775
456.18	0.764
456.39	0.773
456.60	0.804
456.81	0.739
457.03	0.749
457.24	0.746
457.45	0.848
457.66	0.792
457.87	0.746
458.09	0.771
458.30	0.681
458.51	0.814
458.72	0.841
458.93	0.854
459.15	0.757
459.36	0.821
459.57	0.850
459.78	0.900
459.99	0.789
460.20	0.748
460.42	0.832
460.63	0.786
460.84	0.766
461.05	0.785
461.26	0.841
461.47	0.753
461.69	0.817
461.90	0.854
462.11	0.810
462.32	0.880
462.53	0.809
462.74	0.917
462.96	0.786
463.17	0.779
463.38	0.829
463.59	0.957
463.80	0.781
464.01	0.800
464.23	0.892
464.44	0.844
464.65	0.847
464.86	0.876
465.07	0.877
465.28	0.836
465.49	0.858
465.71	0.808
465.92	0.851
466.13	0.902
466.34	0.836
466.55	0.891
466.76	0.853
466.97	0.876
467.19	0.864
467.40	0.909
467.61	0.915
467.82	0.827
468.03	0.804
468.24	0.875
468.45	0.912
468.66	0.889
468.88	0.896
469.09	0.896
469.30	0.958
469.51	0.878
469.72	0.919
469.93	0.886
470.14	0.864
470.35	0.964
470.57	0.909
470.78	0.842
470.99	0.988
471.20	0.922
471.41	0.875
471.62	0.922
471.83	0.890
472.04	0.923
472.25	0.964
472.47	0.879
472.68	0.889
472.89	0.893
473.10	0.943
473.31	0.884
473.52	0.950
473.73	0.973
473.94	0.894
474.15	0.921
474.36	0.922
474.57	0.953
474.79	0.924
475.00	0.919
475.21	0.904
475.42	1.001
475.63	0.898
475.84	0.927
476.05	0.933
476.26	0.898
476.47	0.934
476.68	0.978
476.89	0.901
477.10	0.953
477.32	0.942
477.53	0.995
477.74	0.911
477.95	0.955
478.16	0.906
478.37	0.949
478.58	0.950
478.79	0.964
479.00	0.966
479.21	0.925
479.42	0.965
479.63	0.972
479.84	0.934
480.05	0.931
480.26	0.959
480.47	0.983
480.69	0.985
480.90	0.952
481.11	0.953
481.32	1.017
481.53	0.952
481.74	1.010
481.95	0.970
482.16	0.987
482.37	0.999
482.58	0.963
482.79	0.976
483.00	1.005
483.21	0.947
483.42	0.914
483.63	0.997
483.84	1.028
484.05	1.013
484.26	0.982
484.47	0.987
484.68	0.946
484.89	0.953
485.10	1.005
485.31	0.985
485.52	0.995
485.73	0.997
485.94	1.035
486.15	0.977
486.37	0.996
486.58	0.960
486.79	0.969
487.00	1.020
487.21	1.011
487.42	1.005
487.63	1.012
487.84	1.028
488.05	1.023
488.26	0.983
488.47	0.989
488.68	1.017
488.89	0.993
489.10	0.988
489.31	0.999
489.52	1.034
489.73	1.000
489.94	1.036
490.15	0.993
490.36	1.036
490.57	0.984
490.78	0.969
490.99	1.010
491.20	1.092
491.41	1.045
491.62	0.982
491.83	1.013
492.04	1.007
492.25	1.014
492.45	1.012
492.66	1.039
492.87	1.027
493.08	1.016
493.29	1.000
493.50	0.986
493.71	0.994
493.92	0.990
494.13	1.005
494.34	1.028
494.55	1.036
494.76	1.065
494.97	1.056
495.18	1.017
495.39	1.032
495.60	0.981
495.81	0.985
496.02	1.005
496.23	1.001
496.44	1.035
496.65	1.026
496.86	1.032
497.07	1.062
497.28	1.057
497.49	1.005
497.70	1.004
497.91	1.025
498.12	1.010
498.32	1.057
498.53	1.039
498.74	1.028
498.95	1.056
499.16	1.008
499.37	1.013
499.58	1.020
499.79	1.050
500.00	1.049
500.21	1.080
500.42	1.016
500.63	1.015
500.84	1.037
501.05	1.013
501.26	1.040
501.46	1.079
501.67	1.038
501.88	1.044
502.09	1.019
502.30	1.030
502.51	1.081
502.72	1.036
502.93	1.053
503.14	1.077
503.35	1.049
503.56	1.045
503.77	1.078
503.97	1.054
504.18	1.050
504.39	1.088
504.60	1.050
504.81	1.080
505.02	1.066
505.23	1.067
505.44	1.044
505.65	1.050
505.86	1.028
506.07	1.098
506.27	1.053
506.48	1.062
506.69	1.047
506.90	1.071
507.11	1.065
507.32	1.040
507.53	1.048
507.74	1.039
507.95	1.052
508.15	1.060
508.36	1.065
508.57	1.079
508.78	1.059
508.99	1.057
509.20	1.029
509.41	1.055
509.62	1.046
509.82	1.044
510.03	1.058
510.24	1.058
510.45	1.081
510.66	1.073
510.87	1.065
511.08	1.025
511.29	1.068
511.49	1.044
511.70	1.095
511.91	1.026
512.12	1.023
512.33	1.058
512.54	1.074
512.75	1.058
512.95	1.086
513.16	1.076
513.37	1.051
513.58	1.091
513.79	1.054
514.00	1.058
514.20	1.077
514.41	1.064
514.62	1.029
514.83	1.070
515.04	1.060
515.25	1.038
515.46	1.053
515.66	1.056
515.87	1.070
516.08	1.036
516.29	1.061
516.50	1.040
516.71	1.037
516.91	1.046
517.12	1.066
517.33	1.049
517.54	1.032
517.75	1.036
517.95	1.048
518.16	1.063
518.37	1.029
518.58	1.037
518.79	1.007
519.00	1.037
519.20	1.050
519.41	1.023
519.62	1.046
519.83	1.056
520.04	1.017
520.24	1.016
520.45	1.021
520.66	1.044
520.87	1.004
521.08	1.006
521.28	1.009
521.49	1.025
521.70	0.992
521.91	1.004
522.12	0.988
522.32	1.010
522.53	0.991
522.74	0.982
522.95	0.994
523.16	0.996
523.36	1.003
523.57	0.985
523.78	0.980
523.99	0.985
524.20	0.979
524.40	0.993
524.61	1.002
524.82	0.974
525.03	0.978
525.23	0.978
525.44	0.961
525.65	0.960
525.86	0.983
526.06	0.954
526.27	0.955
526.48	0.965
526.69	0.945
526.90	0.948
527.10	0.986
527.31	0.939
527.52	0.933
527.73	0.925
527.93	0.935
528.14	0.941
528.35	0.928
528.56	0.929
528.76	0.921
528.97	0.911
529.18	0.901
529.39	0.901
529.59	0.906
529.80	0.937
530.01	0.909
530.22	0.908
530.42	0.878
530.63	0.897
530.84	0.873
531.05	0.889
531.25	0.893
531.46	0.887
531.67	0.863
531.88	0.881
532.08	0.875
532.29	0.871
532.50	0.863
532.70	0.855
532.91	0.844
533.12	0.849
533.33	0.874
533.53	0.843
533.74	0.842
533.95	0.848
534.15	0.836
534.36	0.837
534.57	0.820
534.78	0.822
534.98	0.833
535.19	0.803
535.40	0.804
535.60	0.823
535.81	0.801
536.02	0.806
536.23	0.797
536.43	0.799
536.64	0.785
536.85	0.794
537.05	0.803
537.26	0.779
537.47	0.784
537.67	0.772
537.88	0.766
538.09	0.774
538.30	0.762
538.50	0.754
538.71	0.765
538.92	0.752
539.12	0.747
539.33	0.742
539.54	0.742
539.74	0.745
539.95	0.736
540.16	0.734
540.36	0.725
540.57	0.724
540.78	0.717
540.98	0.717
541.19	0.715
541.40	0.702
541.60	0.712
541.81	0.707
542.02	0.708
542.22	0.698
542.43	0.693
542.64	0.688
542.84	0.688
543.05	0.678
543.26	0.677
543.46	0.681
543.67	0.679
543.88	0.674
544.08	0.662
544.29	0.657
544.50	0.657
544.70	0.658
544.91	0.649
545.12	0.650
545.32	0.645
545.53	0.650
545.74	0.638
545.94	0.636
546.15	0.634
546.35	0.632
546.56	0.628
546.77	0.624
546.97	0.620
547.18	0.613
547.39	0.614
547.59	0.613
547.80	0.608
548.01	0.612
548.21	0.607
548.42	0.599
548.62	0.598
548.83	0.595
549.04	0.592
549.24	0.585
549.45	0.584
549.65	0.580
549.86	0.574
550.07	0.574
550.27	0.571
550.48	0.578
550.69	0.564
550.89	0.564
551.10	0.561
551.30	0.558
551.51	0.558
551.72	0.548
551.92	0.549
552.13	0.549
552.33	0.550
552.54	0.544
552.75	0.537
552.95	0.538
553.16	0.532
553.36	0.529
553.57	0.528
553.78	0.526
553.98	0.526
554.19	0.517
554.39	0.514
554.60	0.517
554.80	0.517
555.01	0.509
555.22	0.511
555.42	0.508
555.63	0.501
555.83	0.504
556.04	0.497
556.25	0.499
556.45	0.491
556.66	0.488
556.86	0.491
557.07	0.489
557.27	0.488
557.48	0.482
557.68	0.480
557.89	0.481
558.10	0.478
558.30	0.475
558.51	0.473
558.71	0.471
558.92	0.466
559.12	0.468
559.33	0.471
559.54	0.466
559.74	0.462
559.95	0.460
560.15	0.459
560.36	0.457
560.56	0.451
560.77	0.452
560.97	0.451
561.18	0.446
561.38	0.445
561.59	0.448
561.79	0.443
562.00	0.440
562.21	0.437
562.41	0.436
562.62	0.434
562.82	0.432
563.03	0.429
563.23	0.428
563.44	0.427
563.64	0.424
563.85	0.425
564.05	0.418
564.26	0.418
564.46	0.417
564.67	0.417
564.87	0.413
565.08	0.410
565.28	0.409
565.49	0.410
565.69	0.407
565.90	0.403
566.10	0.405
566.31	0.398
566.51	0.400
566.72	0.401
566.92	0.395
567.13	0.394
567.33	0.393
567.54	0.393
567.74	0.392
567.95	0.388
568.15	0.389
568.36	0.389
568.56	0.388
568.77	0.382
568.97	0.379
569.18	0.379
569.38	0.378
569.59	0.378
569.79	0.375
570.00	0.372
570.20	0.371
570.41	0.370
570.61	0.368
570.82	0.369
571.02	0.365
571.23	0.367
571.43	0.363
571.64	0.361
571.84	0.360
572.05	0.359
572.25	0.358
572.45	0.356
572.66	0.352
572.86	0.351
573.07	0.350
573.27	0.350
573.48	0.349
573.68	0.345
573.89	0.345
574.09	0.346
574.30	0.344
574.50	0.342
574.70	0.342
574.91	0.339
575.11	0.339
575.32	0.338
575.52	0.334
575.73	0.334
575.93	0.333
576.14	0.332
576.34	0.330
576.54	0.329
576.75	0.327
576.95	0.327
577.16	0.325
577.36	0.323
577.57	0.323
577.77	0.322
577.97	0.319
578.18	0.320
578.38	0.317
578.59	0.315
578.79	0.314
579.00	0.315
579.20	0.313
579.40	0.312
579.61	0.311
579.81	0.310
580.02	0.308
580.22	0.307
580.42	0.306
580.63	0.306
580.83	0.305
581.04	0.302
581.24	0.301
581.45	0.300
581.65	0.300
581.85	0.299
582.06	0.296
582.26	0.296
582.47	0.295
582.67	0.295
582.87	0.293
583.08	0.291
583.28	0.291
583.48	0.289
583.69	0.287
583.89	0.287
584.10	0.288
584.30	0.285
584.50	0.284
584.71	0.283
584.91	0.282
585.12	0.280
585.32	0.282
585.52	0.279
585.73	0.278
585.93	0.277
586.13	0.276
586.34	0.275
586.54	0.274
586.75	0.273
586.95	0.272
587.15	0.272
587.36	0.270
587.56	0.269
587.76	0.268
587.97	0.267
588.17	0.266
588.37	0.266
588.58	0.266
588.78	0.263
588.98	0.263
589.19	0.262
589.39	0.260
589.60	0.262
589.80	0.259
590.00	0.259
590.21	0.258
590.41	0.257
590.61	0.257
590.82	0.256
591.02	0.255
591.22	0.253
591.43	0.254
591.63	0.252
591.83	0.251
592.04	0.250
592.24	0.250
592.44	0.247
592.65	0.246
592.85	0.246
593.05	0.246
593.26	0.245
593.46	0.245
593.66	0.244
593.86	0.243
594.07	0.241
594.27	0.241
594.47	0.240
594.68	0.240
594.88	0.240
595.08	0.240
595.29	0.240
595.49	0.238
595.69	0.237
595.90	0.236
596.10	0.236
596.30	0.235
596.50	0.234
596.71	0.233
596.91	0.232
597.11	0.232
597.32	0.231
597.52	0.230
597.72	0.229
597.93	0.229
598.13	0.227
598.33	0.227
598.53	0.227
598.74	0.226
598.94	0.226
599.14	0.226
599.35	0.226
599.55	0.226
599.75	0.225
599.95	0.224
600.16	0.225
600.36	0.223
600.56	0.223
600.76	0.222
600.97	0.220
601.17	0.220
601.37	0.220
601.58	0.219
601.78	0.219
601.98	0.218
602.18	0.216
602.39	0.216
602.59	0.216
602.79	0.215
602.99	0.215
603.20	0.213
603.40	0.214
603.60	0.213
603.80	0.212
604.01	0.212
604.21	0.211
604.41	0.210
604.61	0.209
604.82	0.209
605.02	0.209
605.22	0.208
605.42	0.207
605.62	0.207
605.83	0.206
606.03	0.205
606.23	0.206
606.43	0.205
606.64	0.205
606.84	0.204
607.04	0.204
607.24	0.204
607.45	0.204
607.65	0.203
607.85	0.204
608.05	0.202
608.25	0.201
608.46	0.201
608.66	0.201
608.86	0.200
609.06	0.199
609.26	0.198
609.47	0.199
609.67	0.198
609.87	0.198
610.07	0.198
610.28	0.196
610.48	0.196
610.68	0.196
610.88	0.195
611.08	0.195
611.29	0.194
611.49	0.193
611.69	0.194
611.89	0.192
612.09	0.192
612.29	0.191
612.50	0.191
612.70	0.191
612.90	0.190
613.10	0.190
613.30	0.189
613.51	0.189
613.71	0.189
613.91	0.193
614.11	0.188
614.31	0.188
614.51	0.187
614.72	0.186
614.92	0.186
615.12	0.186
615.32	0.186
615.52	0.186
615.72	0.186
615.93	0.186
616.13	0.185
616.33	0.185
616.53	0.184
616.73	0.185
616.93	0.184
617.14	0.184
617.34	0.184
617.54	0.184
617.74	0.184
617.94	0.182
618.14	0.182
618.34	0.181
618.55	0.180
618.75	0.181
618.95	0.181
619.15	0.181
619.35	0.179
619.55	0.179
619.75	0.180
619.96	0.179
620.16	0.179
620.36	0.179
620.56	0.178
620.76	0.178
620.96	0.178
621.16	0.177
621.36	0.177
621.57	0.177
621.77	0.177
621.97	0.176
622.17	0.175
622.37	0.175
622.57	0.175
622.77	0.175
622.97	0.174
623.18	0.174
623.38	0.174
623.58	0.174
623.78	0.173
623.98	0.173
624.18	0.172
624.38	0.172
624.58	0.172
624.78	0.172
624.98	0.172
625.19	0.171
625.39	0.171
625.59	0.171
625.79	0.171
625.99	0.171
626.19	0.171
626.39	0.170
626.59	0.170
626.79	0.169
626.99	0.169
627.19	0.169
627.40	0.169
627.60	0.169
627.80	0.169
628.00	0.168
628.20	0.168
628.40	0.167
628.60	0.168
628.80	0.167
629.00	0.167
629.20	0.166
629.40	0.166
629.60	0.165
629.80	0.165
630.00	0.165
630.20	0.165
630.41	0.164
630.61	0.164
630.81	0.164
631.01	0.164
631.21	0.163
631.41	0.163
631.61	0.164
631.81	0.163
632.01	0.163
632.21	0.163
632.41	0.161
632.61	0.161
632.81	0.161
633.01	0.162
633.21	0.161
633.41	0.162
633.61	0.161
633.81	0.160
634.01	0.159
634.21	0.160
634.41	0.159
634.61	0.159
634.81	0.159
635.01	0.158
635.22	0.158
