SpectraSuite Data File
++++++++++++++++++++++++++++++++++++
Date: Mon May 20 12:12:09 CDT 2013
User: Students
Dark Spectrum Present: Yes
Reference Spectrum Present: Yes
Number of Sampled Component Spectra: 1
Spectrometers: USB4H00887
Integration Time (usec): 60000 (USB4H00887)
Spectra Averaged: 5 (USB4H00887)
Boxcar Smoothing: 5 (USB4H00887)
Correct for Electrical Dark: No (USB4H00887)
Strobe/Lamp Enabled: No (USB4H00887)
Correct for Detector Non-linearity: No (USB4H00887)
Correct for Stray Light: No (USB4H00887)
Number of Pixels in Processed Spectrum: 3648
>>>>>Begin Processed Spectral Data<<<<<
345.83	0.159
346.05	0.159
346.26	0.159
346.48	-0.000
346.70	-0.000
346.92	0.059
347.14	0.067
347.35	0.090
347.57	1.243
347.79	-0.373
348.01	-0.263
348.23	-0.397
348.44	-0.000
348.66	0.373
348.88	-0.385
349.10	-0.107
349.32	0.066
349.53	0.008
349.75	0.029
349.97	0.025
350.19	0.070
350.41	0.058
350.62	0.037
350.84	0.004
351.06	-0.003
351.28	-0.031
351.50	-0.233
351.71	-0.163
351.93	-0.098
352.15	-0.021
352.37	-0.063
352.58	-0.019
352.80	-0.009
353.02	0.031
353.24	0.029
353.46	0.174
353.67	-0.046
353.89	0.021
354.11	0.039
354.33	0.045
354.54	0.088
354.76	0.177
354.98	0.335
355.20	0.339
355.41	0.129
355.63	0.258
355.85	0.132
356.07	-0.000
356.28	0.148
356.50	0.277
356.72	0.095
356.94	0.345
357.15	0.499
357.37	-0.000
357.59	0.170
357.81	0.128
358.02	0.195
358.24	0.116
358.46	0.264
358.68	0.230
358.89	0.109
359.11	-0.000
359.33	0.064
359.55	-0.467
359.76	0.099
359.98	0.119
360.20	0.082
360.42	0.075
360.63	0.060
360.85	-0.001
361.07	0.098
361.29	0.031
361.50	0.140
361.72	0.052
361.94	0.169
362.15	0.092
362.37	0.049
362.59	0.068
362.81	0.101
363.02	0.211
363.24	0.393
363.46	0.218
363.68	0.255
363.89	0.161
364.11	0.240
364.33	0.301
364.54	0.180
364.76	0.233
364.98	0.238
365.20	0.302
365.41	0.149
365.63	0.207
365.85	0.143
366.06	0.467
366.28	0.364
366.50	0.250
366.71	0.100
366.93	0.139
367.15	0.112
367.37	0.109
367.58	0.136
367.80	0.191
368.02	0.474
368.23	0.144
368.45	0.145
368.67	0.172
368.88	0.150
369.10	-0.000
369.32	0.144
369.53	0.094
369.75	0.131
369.97	0.299
370.19	0.160
370.40	0.063
370.62	0.148
370.84	0.074
371.05	0.373
371.27	0.113
371.49	0.161
371.70	0.175
371.92	0.260
372.14	0.118
372.35	0.128
372.57	0.169
372.79	0.560
373.00	0.119
373.22	0.198
373.44	0.172
373.65	0.132
373.87	0.146
374.09	0.764
374.30	0.149
374.52	0.176
374.74	0.122
374.95	0.438
375.17	0.118
375.39	-0.000
375.60	0.137
375.82	0.211
376.04	0.090
376.25	0.137
376.47	0.068
376.68	0.114
376.90	0.078
377.12	0.157
377.33	0.105
377.55	0.245
377.77	0.119
377.98	0.189
378.20	0.131
378.42	0.161
378.63	0.194
378.85	-0.000
379.07	0.143
379.28	0.492
379.50	0.324
379.71	0.167
379.93	0.112
380.15	0.172
380.36	0.255
380.58	0.178
380.80	0.559
381.01	0.157
381.23	0.143
381.44	0.157
381.66	0.198
381.88	0.239
382.09	-0.098
382.31	0.150
382.53	0.137
382.74	0.907
382.96	0.196
383.17	0.153
383.39	0.206
383.61	0.287
383.82	0.193
384.04	0.215
384.25	0.267
384.47	0.247
384.69	0.257
384.90	0.243
385.12	0.510
385.33	0.325
385.55	0.239
385.77	0.368
385.98	0.177
386.20	0.242
386.41	0.196
386.63	0.216
386.85	0.179
387.06	0.229
387.28	0.357
387.49	0.219
387.71	0.160
387.93	0.150
388.14	0.430
388.36	0.187
388.57	0.172
388.79	0.208
389.01	1.224
389.22	0.265
389.44	0.212
389.65	0.186
389.87	0.172
390.08	0.199
390.30	0.147
390.52	0.287
390.73	0.309
390.95	0.220
391.16	0.200
391.38	-0.000
391.59	0.238
391.81	0.206
392.03	0.181
392.24	0.222
392.46	0.184
392.67	0.172
392.89	0.230
393.10	0.322
393.32	0.211
393.53	0.257
393.75	0.155
393.97	0.167
394.18	0.230
394.40	0.206
394.61	0.227
394.83	0.202
395.04	0.244
395.26	0.165
395.47	0.245
395.69	0.216
395.91	0.226
396.12	0.287
396.34	0.285
396.55	0.175
396.77	0.252
396.98	0.632
397.20	0.271
397.41	0.291
397.63	0.218
397.84	0.193
398.06	0.180
398.27	0.184
398.49	0.222
398.71	0.167
398.92	0.210
399.14	0.272
399.35	0.340
399.57	0.326
399.78	0.229
400.00	0.219
400.21	0.259
400.43	0.215
400.64	0.217
400.86	0.400
401.07	0.242
401.29	0.209
401.50	0.215
401.72	0.294
401.93	0.194
402.15	0.225
402.36	0.201
402.58	0.182
402.79	0.202
403.01	0.311
403.22	0.256
403.44	0.189
403.65	0.286
403.87	0.314
404.08	0.259
404.30	0.383
404.51	0.230
404.73	0.275
404.94	0.244
405.16	0.254
405.37	0.208
405.59	0.331
405.80	0.215
406.02	0.257
406.23	0.258
406.45	0.275
406.66	0.298
406.88	0.203
407.09	0.286
407.31	0.234
407.52	0.266
407.74	0.227
407.95	0.268
408.17	0.260
408.38	0.270
408.60	0.184
408.81	0.290
409.03	0.223
409.24	0.225
409.45	0.270
409.67	0.257
409.88	0.233
410.10	0.279
410.31	0.241
410.53	0.232
410.74	0.299
410.96	0.295
411.17	0.297
411.39	0.251
411.60	0.231
411.82	0.252
412.03	0.240
412.24	0.233
412.46	0.315
412.67	0.267
412.89	0.257
413.10	0.257
413.32	0.237
413.53	0.273
413.75	0.274
413.96	0.226
414.17	0.280
414.39	0.287
414.60	0.249
414.82	0.311
415.03	0.259
415.25	0.285
415.46	0.209
415.68	0.282
415.89	0.427
416.10	0.363
416.32	0.225
416.53	0.256
416.75	0.245
416.96	0.281
417.18	0.246
417.39	0.238
417.60	0.231
417.82	0.299
418.03	0.271
418.25	0.235
418.46	0.244
418.67	0.233
418.89	0.254
419.10	0.256
419.32	0.316
419.53	0.291
419.75	0.265
419.96	0.245
420.17	0.288
420.39	0.271
420.60	0.279
420.82	0.333
421.03	0.286
421.24	0.247
421.46	0.272
421.67	0.287
421.89	0.259
422.10	0.270
422.31	0.265
422.53	0.342
422.74	0.285
422.96	0.240
423.17	0.257
423.38	0.297
423.60	0.262
423.81	0.308
424.03	0.275
424.24	0.298
424.45	0.292
424.67	0.294
424.88	0.271
425.09	0.286
425.31	0.273
425.52	0.285
425.74	0.315
425.95	0.338
426.16	0.279
426.38	0.318
426.59	0.300
426.80	0.337
427.02	0.346
427.23	0.298
427.45	0.356
427.66	0.342
427.87	0.284
428.09	0.293
428.30	0.308
428.51	0.308
428.73	0.326
428.94	0.297
429.15	0.291
429.37	0.284
429.58	0.289
429.79	0.278
430.01	0.317
430.22	0.316
430.44	0.320
430.65	0.299
430.86	0.317
431.08	0.307
431.29	0.291
431.50	0.332
431.72	0.393
431.93	0.348
432.14	0.282
432.36	0.309
432.57	0.316
432.78	0.320
433.00	0.302
433.21	0.300
433.42	0.352
433.64	0.321
433.85	0.345
434.06	0.302
434.28	0.312
434.49	0.319
434.70	0.317
434.92	0.316
435.13	0.337
435.34	0.337
435.56	0.324
435.77	0.323
435.98	0.379
436.20	0.339
436.41	0.302
436.62	0.299
436.83	0.326
437.05	0.354
437.26	0.323
437.47	0.297
437.69	0.321
437.90	0.298
438.11	0.295
438.33	0.312
438.54	0.322
438.75	0.372
438.97	0.369
439.18	0.308
439.39	0.318
439.60	0.342
439.82	0.324
440.03	0.307
440.24	0.390
440.46	0.328
440.67	0.321
440.88	0.333
441.10	0.320
441.31	0.321
441.52	0.341
441.73	0.364
441.95	0.334
442.16	0.320
442.37	0.414
442.58	0.316
442.80	0.309
443.01	0.360
443.22	0.342
443.44	0.310
443.65	0.343
443.86	0.344
444.07	0.360
444.29	0.330
444.50	0.379
444.71	0.319
444.92	0.304
445.14	0.358
445.35	0.371
445.56	0.320
445.78	0.353
445.99	0.352
446.20	0.316
446.41	0.343
446.63	0.344
446.84	0.334
447.05	0.338
447.26	0.377
447.48	0.341
447.69	0.332
447.90	0.362
448.11	0.336
448.33	0.347
448.54	0.356
448.75	0.366
448.96	0.371
449.18	0.384
449.39	0.358
449.60	0.351
449.81	0.393
450.03	0.361
450.24	0.379
450.45	0.368
450.66	0.359
450.87	0.371
451.09	0.352
451.30	0.343
451.51	0.366
451.72	0.372
451.94	0.376
452.15	0.393
452.36	0.351
452.57	0.359
452.78	0.358
453.00	0.370
453.21	0.356
453.42	0.352
453.63	0.383
453.85	0.371
454.06	0.369
454.27	0.409
454.48	0.384
454.69	0.365
454.91	0.386
455.12	0.353
455.33	0.380
455.54	0.385
455.75	0.375
455.97	0.381
456.18	0.381
456.39	0.381
456.60	0.389
456.81	0.373
457.03	0.373
457.24	0.371
457.45	0.398
457.66	0.380
457.87	0.367
458.09	0.376
458.30	0.351
458.51	0.392
458.72	0.399
458.93	0.401
459.15	0.370
459.36	0.394
459.57	0.402
459.78	0.419
459.99	0.392
460.20	0.382
460.42	0.404
460.63	0.393
460.84	0.387
461.05	0.395
461.26	0.412
461.47	0.389
461.69	0.404
461.90	0.416
462.11	0.401
462.32	0.420
462.53	0.404
462.74	0.434
462.96	0.395
463.17	0.392
463.38	0.405
463.59	0.435
463.80	0.391
464.01	0.401
464.23	0.429
464.44	0.418
464.65	0.422
464.86	0.425
465.07	0.428
465.28	0.421
465.49	0.428
465.71	0.415
465.92	0.429
466.13	0.444
466.34	0.424
466.55	0.439
466.76	0.426
466.97	0.431
467.19	0.431
467.40	0.440
467.61	0.441
467.82	0.417
468.03	0.411
468.24	0.433
468.45	0.442
468.66	0.436
468.88	0.438
469.09	0.442
469.30	0.456
469.51	0.436
469.72	0.449
469.93	0.442
470.14	0.439
470.35	0.465
470.57	0.450
470.78	0.434
470.99	0.472
471.20	0.455
471.41	0.443
471.62	0.458
471.83	0.451
472.04	0.458
472.25	0.470
472.47	0.449
472.68	0.449
472.89	0.451
473.10	0.464
473.31	0.452
473.52	0.468
473.73	0.474
473.94	0.452
474.15	0.459
474.36	0.459
474.57	0.466
474.79	0.458
475.00	0.462
475.21	0.457
475.42	0.482
475.63	0.456
475.84	0.465
476.05	0.467
476.26	0.460
476.47	0.469
476.68	0.483
476.89	0.465
477.10	0.480
477.32	0.476
477.53	0.490
477.74	0.470
477.95	0.481
478.16	0.467
478.37	0.479
478.58	0.480
478.79	0.485
479.00	0.484
479.21	0.473
479.42	0.484
479.63	0.485
479.84	0.476
480.05	0.474
480.26	0.484
480.47	0.490
480.69	0.489
480.90	0.482
481.11	0.482
481.32	0.499
481.53	0.483
481.74	0.497
481.95	0.487
482.16	0.490
482.37	0.493
482.58	0.483
482.79	0.488
483.00	0.497
483.21	0.482
483.42	0.475
483.63	0.494
483.84	0.501
484.05	0.500
484.26	0.493
484.47	0.493
484.68	0.484
484.89	0.485
485.10	0.499
485.31	0.494
485.52	0.494
485.73	0.494
485.94	0.505
486.15	0.492
486.37	0.495
486.58	0.486
486.79	0.489
487.00	0.503
487.21	0.503
487.42	0.502
487.63	0.504
487.84	0.509
488.05	0.508
488.26	0.498
488.47	0.500
488.68	0.509
488.89	0.503
489.10	0.503
489.31	0.504
489.52	0.511
489.73	0.503
489.94	0.512
490.15	0.502
490.36	0.513
490.57	0.500
490.78	0.496
490.99	0.506
491.20	0.523
491.41	0.513
491.62	0.499
491.83	0.507
492.04	0.505
492.25	0.507
492.45	0.508
492.66	0.513
492.87	0.512
493.08	0.509
493.29	0.505
493.50	0.505
493.71	0.505
493.92	0.505
494.13	0.510
494.34	0.517
494.55	0.517
494.76	0.525
494.97	0.524
495.18	0.514
495.39	0.518
495.60	0.506
495.81	0.506
496.02	0.513
496.23	0.511
496.44	0.518
496.65	0.517
496.86	0.519
497.07	0.525
497.28	0.524
497.49	0.512
497.70	0.512
497.91	0.518
498.12	0.513
498.32	0.524
498.53	0.520
498.74	0.517
498.95	0.523
499.16	0.513
499.37	0.513
499.58	0.515
499.79	0.525
500.00	0.523
500.21	0.530
500.42	0.517
500.63	0.516
500.84	0.522
501.05	0.518
501.26	0.525
501.46	0.533
501.67	0.526
501.88	0.527
502.09	0.520
502.30	0.522
502.51	0.532
502.72	0.522
502.93	0.526
503.14	0.532
503.35	0.524
503.56	0.523
503.77	0.531
503.97	0.524
504.18	0.525
504.39	0.534
504.60	0.528
504.81	0.536
505.02	0.534
505.23	0.534
505.44	0.529
505.65	0.532
505.86	0.527
506.07	0.542
506.27	0.533
506.48	0.535
506.69	0.531
506.90	0.536
507.11	0.535
507.32	0.530
507.53	0.533
507.74	0.529
507.95	0.533
508.15	0.535
508.36	0.536
508.57	0.538
508.78	0.533
508.99	0.533
509.20	0.527
509.41	0.533
509.62	0.529
509.82	0.528
510.03	0.532
510.24	0.533
510.45	0.538
510.66	0.536
510.87	0.535
511.08	0.526
511.29	0.537
511.49	0.531
511.70	0.542
511.91	0.526
512.12	0.526
512.33	0.534
512.54	0.537
512.75	0.533
512.95	0.540
513.16	0.538
513.37	0.532
513.58	0.542
513.79	0.533
514.00	0.534
514.20	0.538
514.41	0.535
514.62	0.527
514.83	0.538
515.04	0.536
515.25	0.530
515.46	0.533
515.66	0.534
515.87	0.536
516.08	0.529
516.29	0.535
516.50	0.531
516.71	0.529
516.91	0.531
517.12	0.535
517.33	0.531
517.54	0.527
517.75	0.528
517.95	0.531
518.16	0.534
518.37	0.526
518.58	0.527
518.79	0.520
519.00	0.528
519.20	0.529
519.41	0.523
519.62	0.527
519.83	0.530
520.04	0.521
520.24	0.520
520.45	0.522
520.66	0.528
520.87	0.519
521.08	0.518
521.28	0.519
521.49	0.524
521.70	0.515
521.91	0.519
522.12	0.514
522.32	0.520
522.53	0.515
522.74	0.512
522.95	0.515
523.16	0.514
523.36	0.516
523.57	0.511
523.78	0.511
523.99	0.512
524.20	0.510
524.40	0.514
524.61	0.515
524.82	0.509
525.03	0.509
525.23	0.508
525.44	0.504
525.65	0.504
525.86	0.510
526.06	0.502
526.27	0.503
526.48	0.505
526.69	0.499
526.90	0.501
527.10	0.510
527.31	0.497
527.52	0.495
527.73	0.493
527.93	0.495
528.14	0.496
528.35	0.493
528.56	0.493
528.76	0.492
528.97	0.488
529.18	0.485
529.39	0.485
529.59	0.486
529.80	0.495
530.01	0.487
530.22	0.486
530.42	0.476
530.63	0.482
530.84	0.474
531.05	0.478
531.25	0.480
531.46	0.477
531.67	0.471
531.88	0.477
532.08	0.475
532.29	0.474
532.50	0.473
532.70	0.471
532.91	0.468
533.12	0.468
533.33	0.476
533.53	0.466
533.74	0.465
533.95	0.467
534.15	0.464
534.36	0.465
534.57	0.459
534.78	0.460
534.98	0.463
535.19	0.452
535.40	0.453
535.60	0.461
535.81	0.453
536.02	0.455
536.23	0.451
536.43	0.452
536.64	0.448
536.85	0.451
537.05	0.453
537.26	0.445
537.47	0.446
537.67	0.442
537.88	0.439
538.09	0.442
538.30	0.439
538.50	0.436
538.71	0.440
538.92	0.435
539.12	0.433
539.33	0.431
539.54	0.432
539.74	0.435
539.95	0.432
540.16	0.431
540.36	0.428
540.57	0.428
540.78	0.425
540.98	0.425
541.19	0.424
541.40	0.420
541.60	0.425
541.81	0.423
542.02	0.423
542.22	0.419
542.43	0.418
542.64	0.416
542.84	0.416
543.05	0.412
543.26	0.413
543.46	0.415
543.67	0.414
543.88	0.412
544.08	0.408
544.29	0.406
544.50	0.406
544.70	0.406
544.91	0.403
545.12	0.403
545.32	0.402
545.53	0.404
545.74	0.399
545.94	0.398
546.15	0.398
546.35	0.397
546.56	0.395
546.77	0.395
546.97	0.395
547.18	0.391
547.39	0.391
547.59	0.391
547.80	0.389
548.01	0.391
548.21	0.389
548.42	0.385
548.62	0.385
548.83	0.384
549.04	0.382
549.24	0.379
549.45	0.379
549.65	0.378
549.86	0.377
550.07	0.377
550.27	0.376
550.48	0.381
550.69	0.374
550.89	0.375
551.10	0.374
551.30	0.374
551.51	0.374
551.72	0.369
551.92	0.371
552.13	0.372
552.33	0.372
552.54	0.370
552.75	0.366
552.95	0.368
553.16	0.366
553.36	0.365
553.57	0.364
553.78	0.364
553.98	0.365
554.19	0.360
554.39	0.358
554.60	0.360
554.80	0.360
555.01	0.357
555.22	0.358
555.42	0.356
555.63	0.353
555.83	0.355
556.04	0.353
556.25	0.354
556.45	0.349
556.66	0.348
556.86	0.351
557.07	0.350
557.27	0.350
557.48	0.347
557.68	0.346
557.89	0.347
558.10	0.345
558.30	0.343
558.51	0.343
558.71	0.343
558.92	0.341
559.12	0.342
559.33	0.344
559.54	0.342
559.74	0.340
559.95	0.339
560.15	0.340
560.36	0.339
560.56	0.337
560.77	0.337
560.97	0.337
561.18	0.334
561.38	0.333
561.59	0.336
561.79	0.333
562.00	0.332
562.21	0.330
562.41	0.329
562.62	0.329
562.82	0.327
563.03	0.326
563.23	0.326
563.44	0.326
563.64	0.324
563.85	0.326
564.05	0.321
564.26	0.321
564.46	0.321
564.67	0.323
564.87	0.320
565.08	0.319
565.28	0.319
565.49	0.320
565.69	0.319
565.90	0.317
566.10	0.319
566.31	0.316
566.51	0.317
566.72	0.318
566.92	0.314
567.13	0.315
567.33	0.314
567.54	0.313
567.74	0.313
567.95	0.311
568.15	0.312
568.36	0.312
568.56	0.311
568.77	0.308
568.97	0.307
569.18	0.307
569.38	0.306
569.59	0.307
569.79	0.306
570.00	0.305
570.20	0.304
570.41	0.303
570.61	0.302
570.82	0.303
571.02	0.301
571.23	0.303
571.43	0.301
571.64	0.301
571.84	0.301
572.05	0.300
572.25	0.299
572.45	0.299
572.66	0.297
572.86	0.297
573.07	0.297
573.27	0.297
573.48	0.297
573.68	0.294
573.89	0.294
574.09	0.294
574.30	0.293
574.50	0.292
574.70	0.293
574.91	0.291
575.11	0.291
575.32	0.292
575.52	0.289
575.73	0.289
575.93	0.290
576.14	0.289
576.34	0.288
576.54	0.288
576.75	0.287
576.95	0.286
577.16	0.285
577.36	0.285
577.57	0.285
577.77	0.284
577.97	0.282
578.18	0.283
578.38	0.281
578.59	0.280
578.79	0.279
579.00	0.280
579.20	0.280
579.40	0.280
579.61	0.279
579.81	0.278
580.02	0.277
580.22	0.277
580.42	0.276
580.63	0.277
580.83	0.277
581.04	0.275
581.24	0.275
581.45	0.274
581.65	0.274
581.85	0.274
582.06	0.273
582.26	0.273
582.47	0.273
582.67	0.273
582.87	0.272
583.08	0.270
583.28	0.270
583.48	0.269
583.69	0.267
583.89	0.268
584.10	0.268
584.30	0.267
584.50	0.266
584.71	0.265
584.91	0.265
585.12	0.264
585.32	0.265
585.52	0.263
585.73	0.263
585.93	0.263
586.13	0.262
586.34	0.262
586.54	0.262
586.75	0.261
586.95	0.261
587.15	0.262
587.36	0.260
587.56	0.259
587.76	0.259
587.97	0.259
588.17	0.257
588.37	0.257
588.58	0.257
588.78	0.254
588.98	0.255
589.19	0.254
589.39	0.252
589.60	0.254
589.80	0.252
590.00	0.252
590.21	0.253
590.41	0.252
590.61	0.252
590.82	0.252
591.02	0.252
591.22	0.251
591.43	0.252
591.63	0.251
591.83	0.251
592.04	0.250
592.24	0.251
592.44	0.248
592.65	0.247
592.85	0.248
593.05	0.249
593.26	0.248
593.46	0.247
593.66	0.248
593.86	0.247
594.07	0.246
594.27	0.246
594.47	0.245
594.68	0.245
594.88	0.246
595.08	0.245
595.29	0.245
595.49	0.243
595.69	0.243
595.90	0.242
596.10	0.243
596.30	0.243
596.50	0.242
596.71	0.242
596.91	0.241
597.11	0.241
597.32	0.241
597.52	0.240
597.72	0.240
597.93	0.240
598.13	0.239
598.33	0.239
598.53	0.238
598.74	0.238
598.94	0.238
599.14	0.237
599.35	0.237
599.55	0.238
599.75	0.237
599.95	0.236
600.16	0.237
600.36	0.235
600.56	0.235
600.76	0.235
600.97	0.233
601.17	0.233
601.37	0.234
601.58	0.233
601.78	0.233
601.98	0.232
602.18	0.231
602.39	0.231
602.59	0.232
602.79	0.231
602.99	0.231
603.20	0.230
603.40	0.230
603.60	0.230
603.80	0.230
604.01	0.229
604.21	0.229
604.41	0.228
604.61	0.227
604.82	0.227
605.02	0.228
605.22	0.227
605.42	0.227
605.62	0.227
605.83	0.226
606.03	0.225
606.23	0.226
606.43	0.225
606.64	0.226
606.84	0.225
607.04	0.225
607.24	0.225
607.45	0.225
607.65	0.223
607.85	0.225
608.05	0.223
608.25	0.223
608.46	0.223
608.66	0.223
608.86	0.222
609.06	0.221
609.26	0.220
609.47	0.221
609.67	0.220
609.87	0.222
610.07	0.221
610.28	0.220
610.48	0.220
610.68	0.220
610.88	0.219
611.08	0.220
611.29	0.219
611.49	0.219
611.69	0.219
611.89	0.217
612.09	0.217
612.29	0.217
612.50	0.216
612.70	0.216
612.90	0.215
613.10	0.215
613.30	0.214
613.51	0.214
613.71	0.214
613.91	0.219
614.11	0.213
614.31	0.213
614.51	0.213
614.72	0.212
614.92	0.212
615.12	0.212
615.32	0.212
615.52	0.212
615.72	0.213
615.93	0.212
616.13	0.212
616.33	0.212
616.53	0.212
616.73	0.212
616.93	0.211
617.14	0.211
617.34	0.211
617.54	0.211
617.74	0.211
617.94	0.210
618.14	0.209
618.34	0.209
618.55	0.208
618.75	0.209
618.95	0.209
619.15	0.209
619.35	0.208
619.55	0.207
619.75	0.208
619.96	0.207
620.16	0.207
620.36	0.207
620.56	0.207
620.76	0.206
620.96	0.206
621.16	0.206
621.36	0.206
621.57	0.206
621.77	0.207
621.97	0.206
622.17	0.206
622.37	0.205
622.57	0.205
622.77	0.205
622.97	0.204
623.18	0.204
623.38	0.204
623.58	0.204
623.78	0.203
623.98	0.203
624.18	0.202
624.38	0.201
624.58	0.202
624.78	0.203
624.98	0.203
625.19	0.202
625.39	0.202
625.59	0.201
625.79	0.202
625.99	0.202
626.19	0.202
626.39	0.202
626.59	0.202
626.79	0.201
626.99	0.201
627.19	0.200
627.40	0.200
627.60	0.200
627.80	0.199
628.00	0.199
628.20	0.198
628.40	0.198
628.60	0.198
628.80	0.197
629.00	0.198
629.20	0.197
629.40	0.198
629.60	0.196
629.80	0.197
630.00	0.197
630.20	0.197
630.41	0.196
630.61	0.196
630.81	0.196
631.01	0.195
631.21	0.195
631.41	0.195
631.61	0.195
631.81	0.195
632.01	0.194
632.21	0.194
632.41	0.193
632.61	0.193
632.81	0.193
633.01	0.193
633.21	0.193
633.41	0.194
633.61	0.192
633.81	0.192
634.01	0.192
634.21	0.192
634.41	0.191
634.61	0.191
634.81	0.190
635.01	0.190
635.22	0.191
